Times (s) 	 Angular Position (degrees) 
0.000000 	 93.003466 
0.005000 	 93.049878 
0.010000 	 93.073083 
0.015000 	 93.073083 
0.020000 	 93.073083 
0.025000 	 93.026672 
0.030000 	 93.073083 
0.035000 	 93.049878 
0.040000 	 93.073083 
0.045000 	 93.049878 
0.050000 	 93.096289 
0.055000 	 93.096289 
0.060000 	 93.049878 
0.065000 	 93.073083 
0.070000 	 93.049878 
0.075000 	 92.980260 
0.080000 	 93.049878 
0.085000 	 92.957054 
0.090000 	 92.980260 
0.095000 	 93.026672 
0.100000 	 93.049878 
0.105000 	 93.049878 
0.110000 	 93.049878 
0.115000 	 93.026672 
0.120000 	 93.049878 
0.125000 	 93.096289 
0.130000 	 93.165907 
0.135000 	 93.096289 
0.140000 	 93.096289 
0.145000 	 93.142701 
0.150000 	 93.119495 
0.155000 	 93.235524 
0.160000 	 93.165907 
0.165000 	 93.165907 
0.170000 	 93.212318 
0.175000 	 93.189112 
0.180000 	 93.189112 
0.185000 	 93.119495 
0.190000 	 93.119495 
0.195000 	 93.189112 
0.200000 	 93.165907 
0.205000 	 93.096289 
0.210000 	 93.096289 
0.215000 	 93.142701 
0.220000 	 93.119495 
0.225000 	 93.212318 
0.230000 	 93.119495 
0.235000 	 93.165907 
0.240000 	 93.096289 
0.245000 	 93.049878 
0.250000 	 93.142701 
0.255000 	 93.073083 
0.260000 	 93.073083 
0.265000 	 93.258730 
0.270000 	 93.142701 
0.275000 	 93.142701 
0.280000 	 93.026672 
0.285000 	 93.096289 
0.290000 	 93.026672 
0.295000 	 92.980260 
0.300000 	 93.049878 
0.305000 	 92.957054 
0.310000 	 92.933849 
0.315000 	 92.933849 
0.320000 	 92.887437 
0.325000 	 92.864231 
0.330000 	 92.910643 
0.335000 	 92.817820 
0.340000 	 92.864231 
0.345000 	 92.887437 
0.350000 	 92.887437 
0.355000 	 92.864231 
0.360000 	 92.794614 
0.365000 	 92.887437 
0.370000 	 92.794614 
0.375000 	 92.841025 
0.380000 	 92.864231 
0.385000 	 92.771408 
0.390000 	 92.655379 
0.395000 	 92.632173 
0.400000 	 92.678585 
0.405000 	 92.608967 
0.410000 	 92.608967 
0.415000 	 92.585762 
0.420000 	 92.608967 
0.425000 	 92.585762 
0.430000 	 92.585762 
0.435000 	 92.585762 
0.440000 	 92.562556 
0.445000 	 92.539350 
0.450000 	 92.608967 
0.455000 	 92.585762 
0.460000 	 92.678585 
0.465000 	 92.724996 
0.470000 	 92.655379 
0.475000 	 92.748202 
0.480000 	 92.910643 
0.485000 	 93.049878 
0.490000 	 92.933849 
0.495000 	 92.980260 
0.500000 	 93.049878 
0.505000 	 93.026672 
0.510000 	 93.119495 
0.515000 	 93.026672 
0.520000 	 93.096289 
0.525000 	 93.026672 
0.530000 	 93.049878 
0.535000 	 93.003466 
0.540000 	 93.026672 
0.545000 	 93.073083 
0.550000 	 93.049878 
0.555000 	 92.980260 
0.560000 	 93.026672 
0.565000 	 93.096289 
0.570000 	 92.980260 
0.575000 	 93.026672 
0.580000 	 93.026672 
0.585000 	 93.026672 
0.590000 	 93.003466 
0.595000 	 93.003466 
0.600000 	 93.026672 
0.605000 	 93.049878 
0.610000 	 93.003466 
0.615000 	 93.026672 
0.620000 	 93.003466 
0.625000 	 93.026672 
0.630000 	 93.049878 
0.635000 	 93.073083 
0.640000 	 93.049878 
0.645000 	 92.957054 
0.650000 	 92.980260 
0.655000 	 92.933849 
0.660000 	 92.864231 
0.665000 	 92.608967 
0.670000 	 92.562556 
0.675000 	 92.423321 
0.680000 	 92.284086 
0.685000 	 92.307292 
0.690000 	 92.260880 
0.695000 	 92.144851 
0.700000 	 91.959205 
0.705000 	 91.634324 
0.710000 	 91.332648 
0.715000 	 90.891738 
0.720000 	 90.636474 
0.725000 	 90.474034 
0.730000 	 90.172358 
0.735000 	 89.569007 
0.740000 	 89.012068 
0.745000 	 88.478335 
0.750000 	 87.712543 
0.755000 	 86.853929 
0.760000 	 86.134549 
0.765000 	 85.043876 
0.770000 	 84.046027 
0.775000 	 82.955354 
0.780000 	 81.841475 
0.785000 	 80.472333 
0.790000 	 79.312043 
0.795000 	 77.687637 
0.800000 	 76.225671 
0.805000 	 74.786912 
0.810000 	 73.208917 
0.815000 	 71.723746 
0.820000 	 69.844076 
0.825000 	 68.057229 
0.830000 	 66.131148 
0.835000 	 64.158655 
0.840000 	 62.395014 
0.845000 	 60.190462 
0.850000 	 57.916294 
0.855000 	 56.152653 
0.860000 	 53.901690 
0.865000 	 51.766757 
0.870000 	 49.144501 
0.875000 	 46.731098 
0.880000 	 44.294488 
0.885000 	 41.950702 
0.890000 	 39.537299 
0.895000 	 36.961455 
0.900000 	 34.223170 
0.905000 	 31.832973 
0.910000 	 29.001865 
0.915000 	 26.449227 
0.920000 	 23.687737 
0.925000 	 20.949452 
0.930000 	 18.002315 
0.935000 	 15.287236 
0.940000 	 12.525746 
0.945000 	 9.625021 
0.950000 	 6.817119 
0.955000 	 4.102040 
0.960000 	 1.154903 
0.965000 	 -1.629793 
0.970000 	 -4.437695 
0.975000 	 -7.152774 
0.980000 	 -9.983882 
0.985000 	 -12.675755 
0.990000 	 -15.298010 
0.995000 	 -18.129118 
1.000000 	 -20.751374 
1.005000 	 -23.187983 
1.010000 	 -25.856650 
1.015000 	 -28.478905 
1.020000 	 -30.961926 
1.025000 	 -33.375330 
1.030000 	 -35.672704 
1.035000 	 -38.318165 
1.040000 	 -40.499511 
1.045000 	 -42.727268 
1.050000 	 -45.047848 
1.055000 	 -47.298811 
1.060000 	 -49.387333 
1.065000 	 -51.522266 
1.070000 	 -53.494760 
1.075000 	 -55.444047 
1.080000 	 -57.114865 
1.085000 	 -59.064152 
1.090000 	 -60.827793 
1.095000 	 -62.545022 
1.100000 	 -64.215840 
1.105000 	 -65.840246 
1.110000 	 -67.302212 
1.115000 	 -68.648148 
1.120000 	 -70.017290 
1.125000 	 -71.084757 
1.130000 	 -72.407488 
1.135000 	 -73.242897 
1.140000 	 -74.820891 
1.145000 	 -75.795535 
1.150000 	 -76.120416 
1.155000 	 -77.466353 
1.160000 	 -78.232144 
1.165000 	 -78.696260 
1.170000 	 -79.531669 
1.175000 	 -79.949373 
1.180000 	 -80.599136 
1.185000 	 -81.109663 
1.190000 	 -81.411339 
1.195000 	 -81.945072 
1.200000 	 -81.829043 
1.205000 	 -82.246748 
1.210000 	 -82.293159 
1.215000 	 -82.687658 
1.220000 	 -82.664452 
1.225000 	 -82.571629 
1.230000 	 -82.385983 
1.235000 	 -82.037896 
1.240000 	 -81.805838 
1.245000 	 -81.527368 
1.250000 	 -81.156075 
1.255000 	 -80.622342 
1.260000 	 -80.181431 
1.265000 	 -79.508463 
1.270000 	 -78.835495 
1.275000 	 -78.116115 
1.280000 	 -77.141471 
1.285000 	 -76.097210 
1.290000 	 -75.192184 
1.295000 	 -74.240746 
1.300000 	 -72.964427 
1.305000 	 -72.036195 
1.310000 	 -70.945522 
1.315000 	 -69.483557 
1.320000 	 -67.835945 
1.325000 	 -66.722067 
1.330000 	 -65.213689 
1.335000 	 -63.635695 
1.340000 	 -62.173729 
1.345000 	 -60.294059 
1.350000 	 -58.576830 
1.355000 	 -56.697160 
1.360000 	 -55.003137 
1.365000 	 -53.146673 
1.370000 	 -51.267003 
1.375000 	 -49.248098 
1.380000 	 -47.275605 
1.385000 	 -45.140671 
1.390000 	 -42.820091 
1.395000 	 -40.963627 
1.400000 	 -38.410989 
1.405000 	 -36.577730 
1.410000 	 -34.117915 
1.415000 	 -31.727718 
1.420000 	 -29.244697 
1.425000 	 -26.784882 
1.430000 	 -24.626742 
1.435000 	 -22.050898 
1.440000 	 -19.475054 
1.445000 	 -16.876005 
1.450000 	 -14.323366 
1.455000 	 -11.933169 
1.460000 	 -9.496560 
1.465000 	 -6.735069 
1.470000 	 -4.205637 
1.475000 	 -1.490558 
1.480000 	 0.853228 
1.485000 	 3.382660 
1.490000 	 5.981710 
1.495000 	 8.557554 
1.500000 	 11.411868 
1.505000 	 13.778859 
1.510000 	 16.122645 
1.515000 	 18.721695 
1.520000 	 21.065481 
1.525000 	 23.664531 
1.530000 	 26.031523 
1.535000 	 28.421720 
1.540000 	 30.951152 
1.545000 	 33.248527 
1.550000 	 35.638724 
1.555000 	 37.704041 
1.560000 	 39.978209 
1.565000 	 42.136349 
1.570000 	 44.271283 
1.575000 	 46.220570 
1.580000 	 48.355504 
1.585000 	 50.142350 
1.590000 	 52.068432 
1.595000 	 53.948102 
1.600000 	 55.665331 
1.605000 	 57.196914 
1.610000 	 59.285436 
1.615000 	 60.677784 
1.620000 	 62.325396 
1.625000 	 63.926597 
1.630000 	 64.970858 
1.635000 	 66.340000 
1.640000 	 67.709142 
1.645000 	 69.031873 
1.650000 	 69.983311 
1.655000 	 71.329247 
1.660000 	 72.118245 
1.665000 	 73.301740 
1.670000 	 74.090738 
1.675000 	 74.995764 
1.680000 	 75.575909 
1.685000 	 76.318495 
1.690000 	 77.014669 
1.695000 	 77.548402 
1.700000 	 78.082136 
1.705000 	 78.615869 
1.710000 	 78.824721 
1.715000 	 79.219220 
1.720000 	 79.497689 
1.725000 	 79.590513 
1.730000 	 79.660130 
1.735000 	 79.613718 
1.740000 	 79.636924 
1.745000 	 79.544101 
1.750000 	 79.288837 
1.755000 	 78.917544 
1.760000 	 78.639075 
1.765000 	 78.244576 
1.770000 	 77.618019 
1.775000 	 77.153903 
1.780000 	 76.411318 
1.785000 	 75.552703 
1.790000 	 75.111793 
1.795000 	 74.183561 
1.800000 	 73.255329 
1.805000 	 72.048627 
1.810000 	 71.120395 
1.815000 	 69.936899 
1.820000 	 68.660580 
1.825000 	 67.407467 
1.830000 	 66.177559 
1.835000 	 64.924446 
1.840000 	 63.369657 
1.845000 	 61.791663 
1.850000 	 60.352903 
1.855000 	 58.751703 
1.860000 	 56.988062 
1.865000 	 55.502891 
1.870000 	 53.901690 
1.875000 	 51.952403 
1.880000 	 49.724646 
1.885000 	 48.262680 
1.890000 	 46.197364 
1.895000 	 44.248077 
1.900000 	 42.043526 
1.905000 	 39.931798 
1.910000 	 37.680835 
1.915000 	 35.522695 
1.920000 	 33.364556 
1.925000 	 30.974358 
1.930000 	 28.746601 
1.935000 	 26.333198 
1.940000 	 23.780560 
1.945000 	 21.599214 
1.950000 	 19.069782 
1.955000 	 16.934848 
1.960000 	 14.312593 
1.965000 	 12.038424 
1.970000 	 9.369757 
1.975000 	 6.956354 
1.980000 	 4.310892 
1.985000 	 2.059929 
1.990000 	 -0.608738 
1.995000 	 -2.929318 
2.000000 	 -5.110663 
2.005000 	 -8.057800 
2.010000 	 -10.215940 
2.015000 	 -12.675755 
2.020000 	 -15.042746 
2.025000 	 -17.548973 
2.030000 	 -19.939170 
2.035000 	 -22.306162 
2.040000 	 -24.719566 
2.045000 	 -26.738470 
2.050000 	 -29.012639 
2.055000 	 -31.170778 
2.060000 	 -33.050448 
2.065000 	 -35.394234 
2.070000 	 -37.459551 
2.075000 	 -39.362426 
2.080000 	 -41.404537 
2.085000 	 -43.423442 
2.090000 	 -45.094259 
2.095000 	 -46.695460 
2.100000 	 -48.319866 
2.105000 	 -49.967478 
2.110000 	 -51.893559 
2.115000 	 -53.169878 
2.120000 	 -54.701461 
2.125000 	 -56.372279 
2.130000 	 -57.671804 
2.135000 	 -59.017740 
2.140000 	 -60.154825 
2.145000 	 -61.570379 
2.150000 	 -62.545022 
2.155000 	 -63.589283 
2.160000 	 -64.540721 
2.165000 	 -65.260101 
2.170000 	 -66.490008 
2.175000 	 -67.139771 
2.180000 	 -67.859151 
2.185000 	 -68.485707 
2.190000 	 -69.344322 
2.195000 	 -69.645998 
2.200000 	 -70.017290 
2.205000 	 -70.551024 
2.210000 	 -70.690259 
2.215000 	 -71.061551 
2.220000 	 -71.363227 
2.225000 	 -71.502462 
2.230000 	 -71.456050 
2.235000 	 -71.548873 
2.240000 	 -71.502462 
2.245000 	 -71.316815 
2.250000 	 -71.038346 
2.255000 	 -70.759876 
2.260000 	 -70.574230 
2.265000 	 -70.086908 
2.270000 	 -69.576380 
2.275000 	 -69.181881 
2.280000 	 -68.555325 
2.285000 	 -67.975180 
2.290000 	 -67.232594 
2.295000 	 -66.536420 
2.300000 	 -65.584982 
2.305000 	 -64.726368 
2.310000 	 -63.844547 
2.315000 	 -62.800286 
2.320000 	 -61.756025 
2.325000 	 -60.502912 
2.330000 	 -59.203387 
2.335000 	 -58.112714 
2.340000 	 -56.557925 
2.345000 	 -55.444047 
2.350000 	 -54.051699 
2.355000 	 -52.473704 
2.360000 	 -50.965327 
2.365000 	 -49.387333 
2.370000 	 -48.018190 
2.375000 	 -46.115315 
2.380000 	 -44.351674 
2.385000 	 -42.518415 
2.390000 	 -40.870804 
2.395000 	 -38.782281 
2.400000 	 -36.740171 
2.405000 	 -34.999736 
2.410000 	 -32.888008 
2.415000 	 -30.938720 
2.420000 	 -28.850198 
2.425000 	 -26.738470 
2.430000 	 -24.742771 
2.435000 	 -22.909513 
2.440000 	 -19.985582 
2.445000 	 -17.850648 
2.450000 	 -15.669303 
2.455000 	 -13.673604 
2.460000 	 -11.469053 
2.465000 	 -9.241296 
2.470000 	 -6.967127 
2.475000 	 -4.623341 
2.480000 	 -2.441996 
2.485000 	 0.157054 
2.490000 	 2.431222 
2.495000 	 4.682185 
2.500000 	 7.165206 
2.505000 	 9.184111 
2.510000 	 11.365456 
2.515000 	 13.639624 
2.520000 	 15.797764 
2.525000 	 18.071933 
2.530000 	 20.090837 
2.535000 	 22.434623 
2.540000 	 24.407116 
2.545000 	 26.681285 
2.550000 	 28.746601 
2.555000 	 30.719094 
2.560000 	 32.877234 
2.565000 	 34.501640 
2.570000 	 36.381310 
2.575000 	 38.539450 
2.580000 	 40.187062 
2.585000 	 42.136349 
2.590000 	 44.039225 
2.595000 	 45.361955 
2.600000 	 47.311243 
2.605000 	 48.889237 
2.610000 	 50.211968 
2.615000 	 51.882786 
2.620000 	 53.298339 
2.625000 	 54.551453 
2.630000 	 55.734949 
2.635000 	 57.057679 
2.640000 	 58.241175 
2.645000 	 59.447877 
2.650000 	 60.445726 
2.655000 	 61.373958 
2.660000 	 62.418219 
2.665000 	 63.369657 
2.670000 	 64.135449 
2.675000 	 64.785211 
2.680000 	 65.620620 
2.685000 	 66.154353 
2.690000 	 66.711293 
2.695000 	 67.175409 
2.700000 	 67.848377 
2.705000 	 68.173258 
2.710000 	 68.405316 
2.715000 	 68.521345 
2.720000 	 68.706992 
2.725000 	 68.939050 
2.730000 	 69.031873 
2.735000 	 68.962255 
2.740000 	 68.915844 
2.745000 	 68.614168 
2.750000 	 68.451728 
2.755000 	 68.196464 
2.760000 	 67.894789 
2.765000 	 67.314644 
2.770000 	 67.036174 
2.775000 	 66.409617 
2.780000 	 65.783061 
2.785000 	 65.249327 
2.790000 	 64.321095 
2.795000 	 63.949802 
2.800000 	 62.951953 
2.805000 	 61.977309 
2.810000 	 61.118695 
2.815000 	 59.888787 
2.820000 	 59.006967 
2.825000 	 57.405766 
2.830000 	 56.570357 
2.835000 	 55.224421 
2.840000 	 54.087337 
2.845000 	 52.439725 
2.850000 	 51.233023 
2.855000 	 49.422971 
2.860000 	 48.332298 
2.865000 	 46.383011 
2.870000 	 44.572958 
2.875000 	 43.018169 
2.880000 	 41.347352 
2.885000 	 39.630122 
2.890000 	 37.773658 
2.895000 	 35.917194 
2.900000 	 34.385611 
2.905000 	 32.157854 
2.910000 	 30.069332 
2.915000 	 28.236074 
2.920000 	 26.309992 
2.925000 	 23.966206 
2.930000 	 21.993713 
2.935000 	 19.951602 
2.940000 	 17.723846 
2.945000 	 15.565706 
2.950000 	 13.453978 
2.955000 	 11.319044 
2.960000 	 9.114493 
2.965000 	 7.234823 
2.970000 	 4.844626 
2.975000 	 2.616869 
2.980000 	 0.342700 
2.985000 	 -1.490558 
2.990000 	 -3.718315 
2.995000 	 -5.969278 
3.000000 	 -7.964977 
3.005000 	 -10.099911 
3.010000 	 -12.397285 
3.015000 	 -14.300161 
3.020000 	 -16.342271 
3.025000 	 -18.570028 
3.030000 	 -20.635345 
3.035000 	 -22.723867 
3.040000 	 -24.673154 
3.045000 	 -26.320766 
3.050000 	 -28.525317 
3.055000 	 -30.381781 
3.060000 	 -32.307863 
3.065000 	 -34.001886 
3.070000 	 -35.347823 
3.075000 	 -37.204287 
3.080000 	 -38.921516 
3.085000 	 -40.499511 
3.090000 	 -42.100711 
3.095000 	 -43.562676 
3.100000 	 -44.583732 
3.105000 	 -46.486607 
3.110000 	 -47.832544 
3.115000 	 -49.155275 
3.120000 	 -50.037095 
3.125000 	 -51.522266 
3.130000 	 -52.450499 
3.135000 	 -53.587583 
3.140000 	 -54.655050 
3.145000 	 -55.536870 
3.150000 	 -56.349073 
3.155000 	 -57.277305 
3.160000 	 -57.927068 
3.165000 	 -58.553624 
3.170000 	 -59.180181 
3.175000 	 -59.922767 
3.180000 	 -60.270854 
3.185000 	 -60.781381 
3.190000 	 -61.129468 
3.195000 	 -61.663202 
3.200000 	 -61.477555 
3.205000 	 -61.988083 
3.210000 	 -62.196935 
3.215000 	 -62.034495 
3.220000 	 -62.057700 
3.225000 	 -61.988083 
3.230000 	 -61.964877 
3.235000 	 -61.964877 
3.240000 	 -61.686408 
3.245000 	 -61.384732 
3.250000 	 -60.967028 
3.255000 	 -60.502912 
3.260000 	 -60.108413 
3.265000 	 -59.551474 
3.270000 	 -58.971329 
3.275000 	 -58.344772 
3.280000 	 -57.764627 
3.285000 	 -56.720366 
3.290000 	 -56.163427 
3.295000 	 -55.235195 
3.300000 	 -53.889258 
3.305000 	 -53.077055 
3.310000 	 -52.195235 
3.315000 	 -51.174179 
3.320000 	 -49.781831 
3.325000 	 -48.783982 
3.330000 	 -47.484457 
3.335000 	 -46.254549 
3.340000 	 -44.908613 
3.345000 	 -43.539471 
3.350000 	 -41.961476 
3.355000 	 -40.360276 
3.360000 	 -38.875105 
3.365000 	 -37.529168 
3.370000 	 -35.719116 
3.375000 	 -34.141121 
3.380000 	 -32.400686 
3.385000 	 -30.822691 
3.390000 	 -28.803787 
3.395000 	 -27.295410 
3.400000 	 -24.765977 
3.405000 	 -23.141571 
3.410000 	 -21.609988 
3.415000 	 -19.637495 
3.420000 	 -17.757825 
3.425000 	 -15.483657 
3.430000 	 -13.743221 
3.435000 	 -11.770728 
3.440000 	 -9.751824 
3.445000 	 -7.686507 
3.450000 	 -5.574779 
3.455000 	 -3.695109 
3.460000 	 -1.444147 
3.465000 	 0.389112 
3.470000 	 2.408016 
3.475000 	 4.496539 
3.480000 	 6.561855 
3.485000 	 8.395113 
3.490000 	 10.692488 
3.495000 	 12.479334 
3.500000 	 14.591062 
3.505000 	 16.401115 
3.510000 	 18.327196 
3.515000 	 20.183661 
3.520000 	 22.040125 
3.525000 	 23.873383 
3.530000 	 25.613818 
3.535000 	 27.423871 
3.540000 	 29.326746 
3.545000 	 31.252828 
3.550000 	 32.854028 
3.555000 	 34.315994 
3.560000 	 35.917194 
3.565000 	 37.634423 
3.570000 	 39.073183 
3.575000 	 40.581560 
3.580000 	 41.973908 
3.585000 	 43.435874 
3.590000 	 44.480135 
3.595000 	 45.942100 
3.600000 	 47.450477 
3.605000 	 48.564356 
3.610000 	 49.190913 
3.615000 	 50.536849 
3.620000 	 51.766757 
3.625000 	 52.671783 
3.630000 	 53.646426 
3.635000 	 54.435424 
3.640000 	 55.340450 
3.645000 	 56.083036 
3.650000 	 56.732798 
3.655000 	 57.057679 
3.660000 	 57.800265 
3.665000 	 58.403616 
3.670000 	 58.844526 
3.675000 	 59.262230 
3.680000 	 59.610317 
3.685000 	 59.749552 
3.690000 	 59.935199 
3.695000 	 60.004816 
3.700000 	 60.376109 
3.705000 	 60.236874 
3.710000 	 60.167257 
3.715000 	 60.074433 
3.720000 	 59.958404 
3.725000 	 59.703141 
3.730000 	 59.447877 
3.735000 	 59.192613 
3.740000 	 58.844526 
3.745000 	 58.241175 
3.750000 	 57.730648 
3.755000 	 57.057679 
3.760000 	 56.616769 
3.765000 	 55.990212 
3.770000 	 55.340450 
3.775000 	 54.342600 
3.780000 	 53.646426 
3.785000 	 52.671783 
3.790000 	 51.743551 
3.795000 	 50.606466 
3.800000 	 49.446176 
3.805000 	 48.587562 
3.810000 	 47.473683 
3.815000 	 46.081335 
3.820000 	 44.642575 
3.825000 	 43.667932 
3.830000 	 42.275584 
3.835000 	 40.952853 
3.840000 	 39.398064 
3.845000 	 37.889687 
3.850000 	 36.381310 
3.855000 	 34.617669 
3.860000 	 33.294938 
3.865000 	 31.647327 
3.870000 	 29.790862 
3.875000 	 28.189662 
3.880000 	 26.634873 
3.885000 	 24.430322 
3.890000 	 22.991563 
3.895000 	 20.995864 
3.900000 	 19.371457 
3.905000 	 17.607817 
3.910000 	 15.472883 
3.915000 	 13.871682 
3.920000 	 12.015218 
3.925000 	 10.042725 
3.930000 	 8.232673 
3.935000 	 6.144151 
3.940000 	 4.334098 
3.945000 	 2.500840 
3.950000 	 0.319494 
3.955000 	 -1.281706 
3.960000 	 -3.277405 
3.965000 	 -5.226692 
3.970000 	 -7.268803 
3.975000 	 -8.962826 
3.980000 	 -10.772879 
3.985000 	 -12.652549 
3.990000 	 -14.648248 
3.995000 	 -16.203036 
4.000000 	 -17.943472 
4.005000 	 -19.683907 
4.010000 	 -21.958075 
4.015000 	 -23.141571 
4.020000 	 -25.067653 
4.025000 	 -26.599236 
4.030000 	 -28.177230 
4.035000 	 -29.824842 
4.040000 	 -31.356425 
4.045000 	 -32.841596 
4.050000 	 -34.187533 
4.055000 	 -35.487058 
4.060000 	 -37.088258 
4.065000 	 -38.364577 
4.070000 	 -39.640896 
4.075000 	 -40.847598 
4.080000 	 -41.984682 
4.085000 	 -43.168178 
4.090000 	 -44.073204 
4.095000 	 -45.140671 
4.100000 	 -45.860051 
4.105000 	 -46.741871 
4.110000 	 -48.041396 
4.115000 	 -48.598335 
4.120000 	 -49.387333 
4.125000 	 -49.967478 
4.130000 	 -50.779681 
4.135000 	 -51.499061 
4.140000 	 -52.218440 
4.145000 	 -52.288058 
4.150000 	 -52.728968 
4.155000 	 -52.868203 
4.160000 	 -53.193084 
4.165000 	 -53.587583 
4.170000 	 -53.982081 
4.175000 	 -53.750023 
4.180000 	 -53.819641 
4.185000 	 -53.889258 
4.190000 	 -53.796435 
4.195000 	 -53.796435 
4.200000 	 -53.541171 
4.205000 	 -53.355525 
4.210000 	 -53.053849 
4.215000 	 -52.682557 
4.220000 	 -52.450499 
4.225000 	 -52.241646 
4.230000 	 -51.638295 
4.235000 	 -51.081356 
4.240000 	 -50.454800 
4.245000 	 -49.596185 
4.250000 	 -49.294509 
4.255000 	 -48.227043 
4.260000 	 -47.484457 
4.265000 	 -46.463402 
4.270000 	 -45.581581 
4.275000 	 -44.838996 
4.280000 	 -43.887558 
4.285000 	 -42.657650 
4.290000 	 -41.636595 
4.295000 	 -40.383482 
4.300000 	 -39.176780 
4.305000 	 -38.155725 
4.310000 	 -36.856200 
4.315000 	 -35.278205 
4.320000 	 -34.233944 
4.325000 	 -32.888008 
4.330000 	 -31.379631 
4.335000 	 -29.917665 
4.340000 	 -28.502111 
4.345000 	 -26.622441 
4.350000 	 -25.276505 
4.355000 	 -23.605687 
4.360000 	 -22.190133 
4.365000 	 -20.264052 
4.370000 	 -18.662851 
4.375000 	 -17.061651 
4.380000 	 -15.437245 
4.385000 	 -13.557575 
4.390000 	 -11.933169 
4.395000 	 -9.960676 
4.400000 	 -8.313064 
4.405000 	 -6.572629 
4.410000 	 -4.762576 
4.415000 	 -2.929318 
4.420000 	 -1.026442 
4.425000 	 0.458729 
4.430000 	 2.477634 
4.435000 	 4.194863 
4.440000 	 5.912093 
4.445000 	 7.768557 
4.450000 	 9.485786 
4.455000 	 11.319044 
4.460000 	 12.781010 
4.465000 	 14.498239 
4.470000 	 16.238674 
4.475000 	 17.955904 
4.480000 	 19.649927 
4.485000 	 21.204716 
4.490000 	 22.968357 
4.495000 	 24.430322 
4.500000 	 26.170757 
4.505000 	 27.423871 
4.510000 	 29.071483 
4.515000 	 30.324596 
4.520000 	 31.879385 
4.525000 	 33.271733 
4.530000 	 34.315994 
4.535000 	 35.893988 
4.540000 	 37.031072 
4.545000 	 38.377009 
4.550000 	 39.583711 
4.555000 	 40.767207 
4.560000 	 41.811468 
4.565000 	 42.716494 
4.570000 	 43.876784 
4.575000 	 44.619370 
4.580000 	 45.640425 
4.585000 	 46.359805 
4.590000 	 47.125596 
4.595000 	 48.193063 
4.600000 	 48.657179 
4.605000 	 49.144501 
4.610000 	 49.724646 
4.615000 	 50.374408 
4.620000 	 50.931348 
4.625000 	 51.325846 
4.630000 	 51.673933 
4.635000 	 51.998815 
4.640000 	 52.207667 
4.645000 	 52.416519 
4.650000 	 52.462931 
4.655000 	 52.578960 
4.660000 	 52.486136 
4.665000 	 52.532548 
4.670000 	 52.416519 
4.675000 	 52.393313 
4.680000 	 52.323696 
4.685000 	 52.022020 
4.690000 	 51.766757 
4.695000 	 51.418669 
4.700000 	 51.186611 
4.705000 	 50.606466 
4.710000 	 49.863881 
4.715000 	 49.330147 
4.720000 	 48.935649 
4.725000 	 48.309092 
4.730000 	 47.543301 
4.735000 	 46.754303 
4.740000 	 45.965306 
4.745000 	 44.851428 
4.750000 	 44.271283 
4.755000 	 43.180610 
4.760000 	 42.298789 
4.765000 	 41.231323 
4.770000 	 40.094238 
4.775000 	 38.933948 
4.780000 	 37.773658 
4.785000 	 36.613368 
4.790000 	 35.406666 
4.795000 	 34.130347 
4.800000 	 33.062880 
4.805000 	 31.647327 
4.810000 	 29.999715 
4.815000 	 28.607366 
4.820000 	 26.959755 
4.825000 	 25.729847 
4.830000 	 24.175058 
4.835000 	 22.782710 
4.840000 	 20.903040 
4.845000 	 19.626721 
4.850000 	 17.909492 
4.855000 	 16.238674 
4.860000 	 14.753503 
4.865000 	 13.036274 
4.870000 	 11.272633 
4.875000 	 9.810667 
4.880000 	 8.232673 
4.885000 	 6.515443 
4.890000 	 4.635773 
4.895000 	 3.173808 
4.900000 	 1.688637 
4.905000 	 -0.214239 
4.910000 	 -2.047497 
4.915000 	 -3.486257 
4.920000 	 -5.203486 
4.925000 	 -6.920716 
4.930000 	 -8.475504 
4.935000 	 -10.099911 
4.940000 	 -11.770728 
4.945000 	 -13.255900 
4.950000 	 -14.996335 
4.955000 	 -16.319065 
4.960000 	 -18.175530 
4.965000 	 -19.591083 
4.970000 	 -21.099461 
4.975000 	 -22.352574 
4.980000 	 -23.907363 
4.985000 	 -25.206887 
4.990000 	 -26.622441 
4.995000 	 -27.759526 
5.000000 	 -29.105462 
5.005000 	 -30.521016 
5.010000 	 -31.704512 
5.015000 	 -32.771979 
5.020000 	 -34.025092 
5.025000 	 -35.138971 
5.030000 	 -35.974379 
5.035000 	 -37.041846 
5.040000 	 -38.039696 
5.045000 	 -38.921516 
5.050000 	 -39.664102 
5.055000 	 -40.453099 
5.060000 	 -41.520566 
5.065000 	 -42.007888 
5.070000 	 -42.657650 
5.075000 	 -43.469853 
5.080000 	 -43.817940 
5.085000 	 -44.514114 
5.090000 	 -45.094259 
5.095000 	 -45.163877 
5.100000 	 -45.419141 
5.105000 	 -45.790433 
5.110000 	 -46.254549 
5.115000 	 -46.463402 
5.120000 	 -46.579431 
5.125000 	 -46.556225 
5.130000 	 -46.625842 
5.135000 	 -46.579431 
5.140000 	 -46.347373 
5.145000 	 -46.533019 
5.150000 	 -46.509813 
5.155000 	 -46.277755 
5.160000 	 -45.790433 
5.165000 	 -45.465552 
5.170000 	 -45.187083 
5.175000 	 -44.978230 
5.180000 	 -44.537320 
5.185000 	 -43.817940 
5.190000 	 -43.678706 
5.195000 	 -42.680856 
5.200000 	 -41.938270 
5.205000 	 -41.427743 
5.210000 	 -40.592334 
5.215000 	 -40.081806 
5.220000 	 -39.107163 
5.225000 	 -38.248548 
5.230000 	 -37.343522 
5.235000 	 -36.624142 
5.240000 	 -35.371029 
5.245000 	 -34.373179 
5.250000 	 -33.166477 
5.255000 	 -32.145422 
5.260000 	 -31.031544 
5.265000 	 -29.871254 
5.270000 	 -28.641346 
5.275000 	 -27.457850 
5.280000 	 -25.995885 
5.285000 	 -24.905212 
5.290000 	 -23.373629 
5.295000 	 -22.306162 
5.300000 	 -20.704962 
5.305000 	 -19.335820 
5.310000 	 -17.943472 
5.315000 	 -16.295860 
5.320000 	 -14.996335 
5.325000 	 -13.534369 
5.330000 	 -12.049198 
5.335000 	 -10.331969 
5.340000 	 -8.753974 
5.345000 	 -7.477655 
5.350000 	 -5.806837 
5.355000 	 -4.205637 
5.360000 	 -2.790083 
5.365000 	 -1.003236 
5.370000 	 0.342700 
5.375000 	 1.990312 
5.380000 	 3.359454 
5.385000 	 5.169507 
5.390000 	 6.701090 
5.395000 	 8.279084 
5.400000 	 9.857079 
5.405000 	 11.272633 
5.410000 	 12.711392 
5.415000 	 14.289387 
5.420000 	 15.542500 
5.425000 	 17.166906 
5.430000 	 18.536049 
5.435000 	 20.044426 
5.440000 	 21.274333 
5.445000 	 22.805916 
5.450000 	 24.082235 
5.455000 	 25.312143 
5.460000 	 26.588462 
5.465000 	 27.887987 
5.470000 	 29.117894 
5.475000 	 29.953303 
5.480000 	 31.508092 
5.485000 	 32.529147 
5.490000 	 33.619820 
5.495000 	 34.385611 
5.500000 	 35.777959 
5.505000 	 36.427722 
5.510000 	 37.263130 
5.515000 	 38.330597 
5.520000 	 39.073183 
5.525000 	 39.885386 
5.530000 	 40.535149 
5.535000 	 41.208117 
5.540000 	 42.020320 
5.545000 	 42.507642 
5.550000 	 42.855729 
5.555000 	 43.412668 
5.560000 	 44.155254 
5.565000 	 44.340900 
5.570000 	 44.503341 
5.575000 	 44.781810 
5.580000 	 45.153103 
5.585000 	 45.385161 
5.590000 	 45.849277 
5.595000 	 45.895689 
5.600000 	 45.988512 
5.605000 	 45.942100 
5.610000 	 45.918894 
5.615000 	 45.849277 
5.620000 	 45.524396 
5.625000 	 45.222720 
5.630000 	 44.758604 
5.635000 	 44.572958 
5.640000 	 44.364106 
5.645000 	 44.248077 
5.650000 	 43.644726 
5.655000 	 43.018169 
5.660000 	 42.600465 
5.665000 	 42.089937 
5.670000 	 41.416969 
5.675000 	 40.929647 
5.680000 	 40.024621 
5.685000 	 39.374858 
5.690000 	 38.609067 
5.695000 	 37.704041 
5.700000 	 37.031072 
5.705000 	 36.056429 
5.710000 	 35.128197 
5.715000 	 34.083936 
5.720000 	 33.225321 
5.725000 	 31.995414 
5.730000 	 30.997564 
5.735000 	 29.814068 
5.740000 	 28.653778 
5.745000 	 27.493488 
5.750000 	 26.379610 
5.755000 	 25.126496 
5.760000 	 23.710942 
5.765000 	 22.689887 
5.770000 	 21.065481 
5.775000 	 19.905191 
5.780000 	 18.443225 
5.785000 	 17.236524 
5.790000 	 15.496089 
5.795000 	 14.312593 
5.800000 	 12.966656 
5.805000 	 11.435073 
5.810000 	 10.158754 
5.815000 	 8.650377 
5.820000 	 7.304441 
5.825000 	 5.772858 
5.830000 	 4.403715 
5.835000 	 3.011367 
5.840000 	 1.479784 
5.845000 	 0.087436 
5.850000 	 -1.281706 
5.855000 	 -2.836495 
5.860000 	 -4.553724 
5.865000 	 -5.830043 
5.870000 	 -7.361626 
5.875000 	 -8.614739 
5.880000 	 -9.960676 
5.885000 	 -11.353024 
5.890000 	 -12.884607 
5.895000 	 -14.160926 
5.900000 	 -15.205187 
5.905000 	 -16.783181 
5.910000 	 -18.152324 
5.915000 	 -19.382231 
5.920000 	 -20.449698 
5.925000 	 -22.143722 
5.930000 	 -23.071954 
5.935000 	 -24.023392 
5.940000 	 -25.230093 
5.945000 	 -26.135119 
5.950000 	 -27.341821 
5.955000 	 -28.386082 
5.960000 	 -29.430343 
5.965000 	 -30.335370 
5.970000 	 -31.240396 
5.975000 	 -32.122216 
5.980000 	 -33.027243 
5.985000 	 -33.677005 
5.990000 	 -34.442796 
5.995000 	 -35.162176 
6.000000 	 -35.487058 
6.005000 	 -36.600936 
6.010000 	 -36.879406 
6.015000 	 -37.459551 
6.020000 	 -37.877255 
6.025000 	 -38.387783 
6.030000 	 -38.851899 
6.035000 	 -39.083957 
6.040000 	 -39.385632 
6.045000 	 -39.571279 
6.050000 	 -39.965777 
6.055000 	 -40.035395 
6.060000 	 -40.128218 
6.065000 	 -40.151424 
6.070000 	 -40.174629 
6.075000 	 -40.128218 
6.080000 	 -40.081806 
6.085000 	 -39.942571 
6.090000 	 -39.780131 
6.095000 	 -39.640896 
6.100000 	 -39.292809 
6.105000 	 -38.898310 
6.110000 	 -38.805487 
6.115000 	 -38.318165 
6.120000 	 -37.621991 
6.125000 	 -37.413139 
6.130000 	 -36.879406 
6.135000 	 -36.600936 
6.140000 	 -35.672704 
6.145000 	 -35.231794 
6.150000 	 -34.326767 
6.155000 	 -33.839446 
6.160000 	 -33.073654 
6.165000 	 -32.215040 
6.170000 	 -31.495660 
6.175000 	 -30.706662 
6.180000 	 -29.662401 
6.185000 	 -28.664552 
6.190000 	 -27.736320 
6.195000 	 -26.692059 
6.200000 	 -25.717415 
6.205000 	 -24.464302 
6.210000 	 -23.768128 
6.215000 	 -22.515014 
6.220000 	 -21.377930 
6.225000 	 -20.217640 
6.230000 	 -18.871704 
6.235000 	 -17.873854 
6.240000 	 -16.365477 
6.245000 	 -15.228393 
6.250000 	 -14.021691 
6.255000 	 -12.698960 
6.260000 	 -11.422641 
6.265000 	 -10.099911 
6.270000 	 -8.730768 
6.275000 	 -7.570478 
6.280000 	 -6.178130 
6.285000 	 -4.762576 
6.290000 	 -3.416640 
6.295000 	 -2.163526 
6.300000 	 -0.631944 
6.305000 	 0.481935 
6.310000 	 2.013518 
6.315000 	 3.289837 
6.320000 	 4.775008 
6.325000 	 5.958504 
6.330000 	 7.350852 
6.335000 	 8.673583 
6.340000 	 10.089137 
6.345000 	 11.295839 
6.350000 	 12.641775 
6.355000 	 13.894888 
6.360000 	 14.985561 
6.365000 	 16.192263 
6.370000 	 17.514993 
6.375000 	 18.837724 
6.380000 	 19.951602 
6.385000 	 21.042275 
6.390000 	 22.063330 
6.395000 	 23.362855 
6.400000 	 24.453528 
6.405000 	 25.404966 
6.410000 	 26.565256 
6.415000 	 27.423871 
6.420000 	 28.282485 
6.425000 	 29.373158 
6.430000 	 29.953303 
6.435000 	 31.067181 
6.440000 	 31.763356 
6.445000 	 32.691588 
6.450000 	 33.271733 
6.455000 	 33.944701 
6.460000 	 34.408817 
6.465000 	 35.429872 
6.470000 	 35.870782 
6.475000 	 36.334898 
6.480000 	 36.961455 
6.485000 	 37.263130 
6.490000 	 37.657629 
6.495000 	 38.191363 
6.500000 	 38.632273 
6.505000 	 38.748302 
6.510000 	 39.049977 
6.515000 	 39.212418 
6.520000 	 39.444476 
6.525000 	 39.560505 
6.530000 	 39.560505 
6.535000 	 39.560505 
6.540000 	 39.583711 
6.545000 	 39.537299 
6.550000 	 39.374858 
6.555000 	 39.282035 
6.560000 	 39.026771 
6.565000 	 38.701890 
6.570000 	 38.562655 
6.575000 	 38.237774 
6.580000 	 37.796864 
6.585000 	 37.518394 
6.590000 	 36.938249 
6.595000 	 36.566956 
6.600000 	 36.126046 
6.605000 	 35.615519 
6.610000 	 34.548052 
6.615000 	 34.199965 
6.620000 	 33.805466 
6.625000 	 32.993263 
6.630000 	 32.018619 
6.635000 	 31.508092 
6.640000 	 30.301390 
6.645000 	 29.628422 
6.650000 	 29.048277 
6.655000 	 27.887987 
6.660000 	 26.704491 
6.665000 	 26.124346 
6.670000 	 25.056879 
6.675000 	 23.943000 
6.680000 	 23.107592 
6.685000 	 22.016919 
6.690000 	 20.833423 
6.695000 	 19.812368 
6.700000 	 18.814518 
6.705000 	 17.607817 
6.710000 	 16.192263 
6.715000 	 15.101590 
6.720000 	 14.010917 
6.725000 	 12.711392 
6.730000 	 11.226221 
6.735000 	 10.274783 
6.740000 	 8.859229 
6.745000 	 7.977409 
6.750000 	 6.631472 
6.755000 	 5.424771 
6.760000 	 4.102040 
6.765000 	 2.686486 
6.770000 	 1.549402 
6.775000 	 0.226671 
6.780000 	 -0.910413 
6.785000 	 -2.465202 
6.790000 	 -3.416640 
6.795000 	 -4.669753 
6.800000 	 -5.969278 
6.805000 	 -7.083156 
6.810000 	 -8.382681 
6.815000 	 -9.612589 
6.820000 	 -10.564027 
6.825000 	 -11.817140 
6.830000 	 -13.047047 
6.835000 	 -14.137720 
6.840000 	 -15.205187 
6.845000 	 -16.249448 
6.850000 	 -17.525767 
6.855000 	 -18.500411 
6.860000 	 -19.614289 
6.865000 	 -20.356875 
6.870000 	 -21.447548 
6.875000 	 -22.375780 
6.880000 	 -23.257600 
6.885000 	 -24.069803 
6.890000 	 -24.974829 
6.895000 	 -25.694209 
6.900000 	 -26.436795 
6.905000 	 -27.272204 
6.910000 	 -27.921966 
6.915000 	 -28.594934 
6.920000 	 -29.407138 
6.925000 	 -29.917665 
6.930000 	 -30.590633 
6.935000 	 -31.008338 
6.940000 	 -31.449248 
6.945000 	 -31.866952 
6.950000 	 -32.145422 
6.955000 	 -32.563127 
6.960000 	 -32.795185 
6.965000 	 -33.236095 
6.970000 	 -33.491359 
6.975000 	 -33.909063 
6.980000 	 -34.071504 
6.985000 	 -34.257150 
6.990000 	 -34.303562 
6.995000 	 -34.303562 
7.000000 	 -34.094709 
7.005000 	 -34.210738 
7.010000 	 -34.164327 
7.015000 	 -33.909063 
7.020000 	 -33.932269 
7.025000 	 -33.653799 
7.030000 	 -33.236095 
7.035000 	 -33.073654 
7.040000 	 -32.771979 
7.045000 	 -32.400686 
7.050000 	 -32.099011 
7.055000 	 -31.588483 
7.060000 	 -31.286807 
7.065000 	 -30.776280 
7.070000 	 -30.265752 
7.075000 	 -29.499961 
7.080000 	 -28.989433 
7.085000 	 -28.362876 
7.090000 	 -27.759526 
7.095000 	 -26.970528 
7.100000 	 -25.856650 
7.105000 	 -25.230093 
7.110000 	 -24.765977 
7.115000 	 -23.698510 
7.120000 	 -23.071954 
7.125000 	 -22.259751 
7.130000 	 -21.401136 
7.135000 	 -20.148023 
7.140000 	 -19.428643 
7.145000 	 -18.361176 
7.150000 	 -17.479355 
7.155000 	 -16.295860 
7.160000 	 -15.321216 
7.165000 	 -14.207337 
7.170000 	 -13.070253 
7.175000 	 -12.118815 
7.180000 	 -11.144172 
7.185000 	 -10.007087 
7.190000 	 -8.846797 
7.195000 	 -7.616890 
7.200000 	 -6.386982 
7.205000 	 -5.296310 
7.210000 	 -4.275254 
7.215000 	 -2.906112 
7.220000 	 -1.861851 
7.225000 	 -0.794384 
7.230000 	 0.180260 
7.235000 	 1.642225 
7.240000 	 2.640075 
7.245000 	 3.846776 
7.250000 	 5.076684 
7.255000 	 6.097739 
7.260000 	 7.420470 
7.265000 	 8.418319 
7.270000 	 9.648227 
7.275000 	 10.808517 
7.280000 	 11.574308 
7.285000 	 12.781010 
7.290000 	 14.034123 
7.295000 	 14.985561 
7.300000 	 16.053028 
7.305000 	 17.375759 
7.310000 	 17.955904 
7.315000 	 19.000165 
7.320000 	 19.998014 
7.325000 	 20.833423 
7.330000 	 21.854478 
7.335000 	 22.782710 
7.340000 	 23.316444 
7.345000 	 24.267882 
7.350000 	 25.172908 
7.355000 	 25.985111 
7.360000 	 26.634873 
7.365000 	 27.168607 
7.370000 	 27.818369 
7.375000 	 28.514543 
7.380000 	 29.280335 
7.385000 	 29.628422 
7.390000 	 29.999715 
7.395000 	 30.835123 
7.400000 	 31.392063 
7.405000 	 31.716944 
7.410000 	 32.018619 
7.415000 	 32.505941 
7.420000 	 32.877234 
7.425000 	 33.132498 
7.430000 	 33.341350 
7.435000 	 33.364556 
7.440000 	 33.851878 
7.445000 	 33.851878 
7.450000 	 33.921495 
7.455000 	 33.921495 
7.460000 	 34.083936 
7.465000 	 34.037524 
7.470000 	 33.828672 
7.475000 	 33.828672 
7.480000 	 33.759054 
7.485000 	 33.271733 
7.490000 	 33.248527 
7.495000 	 33.062880 
7.500000 	 32.946851 
7.505000 	 32.552353 
7.510000 	 32.041825 
7.515000 	 31.786561 
7.520000 	 31.252828 
7.525000 	 30.811918 
7.530000 	 29.953303 
7.535000 	 29.674833 
7.540000 	 29.373158 
7.545000 	 28.653778 
7.550000 	 27.957604 
7.555000 	 27.261430 
7.560000 	 26.750902 
7.565000 	 25.961905 
7.570000 	 25.265731 
7.575000 	 24.407116 
7.580000 	 23.687737 
7.585000 	 22.991563 
7.590000 	 22.132948 
7.595000 	 21.135098 
7.600000 	 20.508542 
7.605000 	 19.719544 
7.610000 	 18.628872 
7.615000 	 17.654228 
7.620000 	 16.818819 
7.625000 	 15.519294 
7.630000 	 14.753503 
7.635000 	 13.686036 
7.640000 	 12.664981 
7.645000 	 11.411868 
7.650000 	 10.762105 
7.655000 	 9.671432 
7.660000 	 8.441525 
7.665000 	 7.536499 
7.670000 	 6.515443 
7.675000 	 5.517594 
7.680000 	 4.334098 
7.685000 	 3.197014 
7.690000 	 2.129547 
7.695000 	 1.154903 
7.700000 	 0.226671 
7.705000 	 -1.003236 
7.710000 	 -2.233144 
7.715000 	 -3.022141 
7.720000 	 -4.437695 
7.725000 	 -5.180281 
7.730000 	 -6.340571 
7.735000 	 -7.500861 
7.740000 	 -8.452299 
7.745000 	 -9.450148 
7.750000 	 -10.331969 
7.755000 	 -11.376230 
7.760000 	 -12.327668 
7.765000 	 -13.070253 
7.770000 	 -14.276955 
7.775000 	 -15.042746 
7.780000 	 -15.924567 
7.785000 	 -16.876005 
7.790000 	 -17.757825 
7.795000 	 -18.384382 
7.800000 	 -19.173379 
7.805000 	 -19.846347 
7.810000 	 -20.704962 
7.815000 	 -21.261901 
7.820000 	 -22.282956 
7.825000 	 -22.700661 
7.830000 	 -23.234394 
7.835000 	 -23.953774 
7.840000 	 -24.557125 
7.845000 	 -24.974829 
7.850000 	 -25.554974 
7.855000 	 -25.856650 
7.860000 	 -26.227943 
7.865000 	 -26.645647 
7.870000 	 -27.225792 
7.875000 	 -27.504262 
7.880000 	 -27.689908 
7.885000 	 -27.829143 
7.890000 	 -28.223642 
7.895000 	 -28.455700 
7.900000 	 -28.409288 
7.905000 	 -28.641346 
7.910000 	 -28.780581 
7.915000 	 -28.618140 
7.920000 	 -28.803787 
7.925000 	 -28.803787 
7.930000 	 -28.710963 
7.935000 	 -28.594934 
7.940000 	 -28.571729 
7.945000 	 -28.362876 
7.950000 	 -28.014789 
7.955000 	 -27.782731 
7.960000 	 -27.689908 
7.965000 	 -27.411439 
7.970000 	 -27.132969 
7.975000 	 -26.622441 
7.980000 	 -26.158325 
7.985000 	 -25.787032 
7.990000 	 -25.485357 
7.995000 	 -24.928418 
8.000000 	 -24.394684 
8.005000 	 -23.907363 
8.010000 	 -23.187983 
8.015000 	 -22.515014 
8.020000 	 -22.329368 
8.025000 	 -21.447548 
8.030000 	 -20.983432 
8.035000 	 -20.194434 
8.040000 	 -19.451849 
8.045000 	 -18.616440 
8.050000 	 -17.989883 
8.055000 	 -17.154474 
8.060000 	 -16.110213 
8.065000 	 -15.344422 
8.070000 	 -14.648248 
8.075000 	 -13.696810 
8.080000 	 -12.791784 
8.085000 	 -11.886757 
8.090000 	 -11.144172 
8.095000 	 -10.123116 
8.100000 	 -9.148473 
8.105000 	 -8.382681 
8.110000 	 -7.361626 
8.115000 	 -6.154924 
8.120000 	 -5.342721 
8.125000 	 -4.414489 
8.130000 	 -3.393434 
8.135000 	 -2.534819 
8.140000 	 -1.165677 
8.145000 	 -0.353474 
8.150000 	 0.435523 
8.155000 	 1.665431 
8.160000 	 2.547251 
8.165000 	 3.452278 
8.170000 	 4.566156 
8.175000 	 5.540800 
8.180000 	 6.469032 
8.185000 	 7.420470 
8.190000 	 8.325496 
8.195000 	 9.068082 
8.200000 	 10.274783 
8.205000 	 11.319044 
8.210000 	 12.038424 
8.215000 	 12.943450 
8.220000 	 13.802065 
8.225000 	 14.567857 
8.230000 	 15.472883 
8.235000 	 16.145851 
8.240000 	 17.166906 
8.245000 	 17.723846 
8.250000 	 18.675283 
8.255000 	 19.278634 
8.260000 	 20.137249 
8.265000 	 20.810217 
8.270000 	 21.483185 
8.275000 	 22.086536 
8.280000 	 22.736299 
8.285000 	 23.362855 
8.290000 	 23.734148 
8.295000 	 24.291087 
8.300000 	 24.801615 
8.305000 	 25.335348 
8.310000 	 25.753053 
8.315000 	 26.472433 
8.320000 	 26.681285 
8.325000 	 26.843726 
8.330000 	 27.075784 
8.335000 	 27.493488 
8.340000 	 27.748752 
8.345000 	 28.073633 
8.350000 	 28.120045 
8.355000 	 28.375308 
8.360000 	 28.537749 
8.365000 	 28.653778 
8.370000 	 28.700190 
8.375000 	 28.839425 
8.380000 	 28.839425 
8.385000 	 28.746601 
8.390000 	 28.560955 
8.395000 	 28.514543 
8.400000 	 28.375308 
8.405000 	 28.236074 
8.410000 	 28.027221 
8.415000 	 27.980810 
8.420000 	 27.539900 
8.425000 	 27.261430 
8.430000 	 27.006166 
8.435000 	 26.704491 
8.440000 	 26.402815 
8.445000 	 26.031523 
8.450000 	 25.520995 
8.455000 	 25.242525 
8.460000 	 24.383911 
8.465000 	 24.012618 
8.470000 	 23.409267 
8.475000 	 23.107592 
8.480000 	 22.434623 
8.485000 	 21.993713 
8.490000 	 21.019069 
8.495000 	 20.531748 
8.500000 	 19.905191 
8.505000 	 19.069782 
8.510000 	 18.559254 
8.515000 	 17.747051 
8.520000 	 17.097289 
8.525000 	 16.099439 
8.530000 	 15.403265 
8.535000 	 14.637474 
8.540000 	 13.941300 
8.545000 	 12.966656 
8.550000 	 12.409717 
8.555000 	 11.319044 
8.560000 	 10.599664 
8.565000 	 9.694638 
8.570000 	 8.696789 
8.575000 	 8.023820 
8.580000 	 7.025971 
8.585000 	 6.004916 
8.590000 	 5.308742 
8.595000 	 4.194863 
8.600000 	 3.475483 
8.605000 	 2.616869 
8.610000 	 1.619019 
8.615000 	 0.551552 
8.620000 	 -0.237445 
8.625000 	 -1.026442 
8.630000 	 -2.024292 
8.635000 	 -2.859700 
8.640000 	 -3.787933 
8.645000 	 -4.716165 
8.650000 	 -5.412339 
8.655000 	 -6.363777 
8.660000 	 -7.292009 
8.665000 	 -8.243446 
8.670000 	 -8.939621 
8.675000 	 -9.844647 
8.680000 	 -10.331969 
8.685000 	 -11.283406 
8.690000 	 -11.956375 
8.695000 	 -12.722166 
8.700000 	 -13.511163 
8.705000 	 -14.137720 
8.710000 	 -14.857100 
8.715000 	 -15.321216 
8.720000 	 -16.156625 
8.725000 	 -16.806387 
8.730000 	 -17.479355 
8.735000 	 -18.105912 
8.740000 	 -18.593234 
8.745000 	 -19.034144 
8.750000 	 -19.660701 
8.755000 	 -20.101611 
8.760000 	 -20.565727 
8.765000 	 -21.076255 
8.770000 	 -21.308313 
8.775000 	 -21.981281 
8.780000 	 -22.352574 
8.785000 	 -22.329368 
8.790000 	 -22.654249 
8.795000 	 -22.909513 
8.800000 	 -22.955925 
8.805000 	 -23.118365 
8.810000 	 -23.373629 
8.815000 	 -23.466452 
8.820000 	 -23.768128 
8.825000 	 -23.744922 
8.830000 	 -23.884157 
8.835000 	 -23.907363 
8.840000 	 -24.000186 
8.845000 	 -23.744922 
8.850000 	 -23.675305 
8.855000 	 -23.605687 
8.860000 	 -23.443247 
8.865000 	 -23.141571 
8.870000 	 -23.048748 
8.875000 	 -23.048748 
8.880000 	 -22.723867 
8.885000 	 -22.329368 
8.890000 	 -22.445397 
8.895000 	 -22.027693 
8.900000 	 -21.238695 
8.905000 	 -21.122666 
8.910000 	 -20.658550 
8.915000 	 -20.055199 
8.920000 	 -19.962376 
8.925000 	 -19.289408 
8.930000 	 -18.755675 
8.935000 	 -18.268353 
8.940000 	 -17.850648 
8.945000 	 -17.200886 
8.950000 	 -16.551123 
8.955000 	 -15.970978 
8.960000 	 -15.274804 
8.965000 	 -14.810688 
8.970000 	 -14.207337 
8.975000 	 -13.209488 
8.980000 	 -12.652549 
8.985000 	 -11.886757 
8.990000 	 -11.283406 
8.995000 	 -10.378380 
9.000000 	 -9.867853 
9.005000 	 -8.916415 
9.010000 	 -8.405887 
9.015000 	 -7.454449 
9.020000 	 -6.665452 
9.025000 	 -5.853249 
9.030000 	 -5.041046 
9.035000 	 -4.321666 
9.040000 	 -3.439846 
9.045000 	 -2.720466 
9.050000 	 -1.908263 
9.055000 	 -0.956825 
9.060000 	 -0.121416 
9.065000 	 0.458729 
9.070000 	 1.572608 
9.075000 	 2.384811 
9.080000 	 3.104191 
9.085000 	 3.986011 
9.090000 	 4.612568 
9.095000 	 5.656829 
9.100000 	 6.399414 
9.105000 	 7.304441 
9.110000 	 7.954203 
9.115000 	 8.882435 
9.120000 	 9.462580 
9.125000 	 10.205166 
9.130000 	 11.133398 
9.135000 	 11.319044 
9.140000 	 12.316894 
9.145000 	 13.059479 
9.150000 	 13.825271 
9.155000 	 14.428622 
9.160000 	 15.008767 
9.165000 	 15.751352 
9.170000 	 16.215468 
9.175000 	 16.981260 
9.180000 	 17.514993 
9.185000 	 18.002315 
9.190000 	 18.512843 
9.195000 	 19.000165 
9.200000 	 19.673133 
9.205000 	 20.322895 
9.210000 	 20.462130 
9.215000 	 21.019069 
9.220000 	 21.227922 
9.225000 	 21.715243 
9.230000 	 22.016919 
9.235000 	 22.388212 
9.240000 	 22.620270 
9.245000 	 22.968357 
9.250000 	 23.293238 
9.255000 	 23.409267 
9.260000 	 23.478884 
9.265000 	 23.618119 
9.270000 	 23.710942 
9.275000 	 23.803766 
9.280000 	 23.919795 
9.285000 	 23.919795 
9.290000 	 23.919795 
9.295000 	 23.966206 
9.300000 	 23.943000 
9.305000 	 23.826971 
9.310000 	 23.780560 
9.315000 	 23.826971 
9.320000 	 23.502090 
9.325000 	 23.362855 
9.330000 	 23.316444 
9.335000 	 23.200415 
9.340000 	 22.945151 
9.345000 	 22.736299 
9.350000 	 22.225771 
9.355000 	 22.040125 
9.360000 	 21.506391 
9.365000 	 21.088687 
9.370000 	 20.833423 
9.375000 	 20.346101 
9.380000 	 20.183661 
9.385000 	 19.696339 
9.390000 	 18.930547 
9.395000 	 18.675283 
9.400000 	 18.187962 
9.405000 	 17.631022 
9.410000 	 17.166906 
9.415000 	 16.354703 
9.420000 	 15.960205 
9.425000 	 15.380060 
9.430000 	 14.707091 
9.435000 	 14.126946 
9.440000 	 13.314743 
9.445000 	 12.734598 
9.450000 	 12.386511 
9.455000 	 11.365456 
9.460000 	 10.878134 
9.465000 	 10.158754 
9.470000 	 9.416169 
9.475000 	 8.650377 
9.480000 	 8.139849 
9.485000 	 7.304441 
9.490000 	 6.538649 
9.495000 	 5.842475 
9.500000 	 5.076684 
9.505000 	 4.496539 
9.510000 	 3.313043 
9.515000 	 2.640075 
9.520000 	 1.967106 
9.525000 	 1.363755 
9.530000 	 0.481935 
9.535000 	 -0.167827 
9.540000 	 -0.956825 
9.545000 	 -1.629793 
9.550000 	 -2.558025 
9.555000 	 -3.045347 
9.560000 	 -3.880756 
9.565000 	 -4.646547 
9.570000 	 -5.180281 
9.575000 	 -5.969278 
9.580000 	 -6.595835 
9.585000 	 -7.477655 
9.590000 	 -8.220241 
9.595000 	 -8.568328 
9.600000 	 -9.148473 
9.605000 	 -9.891058 
9.610000 	 -10.355174 
9.615000 	 -10.772879 
9.620000 	 -11.654699 
9.625000 	 -12.304462 
9.630000 	 -12.629343 
9.635000 	 -13.232694 
9.640000 	 -13.720016 
9.645000 	 -14.207337 
9.650000 	 -14.996335 
9.655000 	 -15.112364 
9.660000 	 -15.692509 
9.665000 	 -15.970978 
9.670000 	 -16.411889 
9.675000 	 -16.783181 
9.680000 	 -17.131268 
9.685000 	 -17.409738 
9.690000 	 -17.897060 
9.695000 	 -18.036295 
9.700000 	 -18.175530 
9.705000 	 -18.453999 
9.710000 	 -18.639646 
9.715000 	 -18.778880 
9.720000 	 -18.871704 
9.725000 	 -18.941321 
9.730000 	 -19.034144 
9.735000 	 -19.242996 
9.740000 	 -19.335820 
9.745000 	 -19.382231 
9.750000 	 -19.428643 
9.755000 	 -19.173379 
9.760000 	 -19.359025 
9.765000 	 -19.103762 
9.770000 	 -18.894909 
9.775000 	 -18.848498 
9.780000 	 -18.755675 
9.785000 	 -18.662851 
9.790000 	 -18.407588 
9.795000 	 -18.152324 
9.800000 	 -17.873854 
9.805000 	 -17.595384 
9.810000 	 -17.479355 
9.815000 	 -17.200886 
9.820000 	 -16.945622 
9.825000 	 -16.295860 
9.830000 	 -15.994184 
9.835000 	 -15.831744 
9.840000 	 -15.390833 
9.845000 	 -14.926717 
9.850000 	 -14.509013 
9.855000 	 -14.044897 
9.860000 	 -13.580781 
9.865000 	 -12.977430 
9.870000 	 -12.582931 
9.875000 	 -11.933169 
9.880000 	 -11.469053 
9.885000 	 -10.842496 
9.890000 	 -10.447998 
9.895000 	 -9.960676 
9.900000 	 -9.194884 
9.905000 	 -8.382681 
9.910000 	 -8.220241 
9.915000 	 -7.547272 
9.920000 	 -6.735069 
9.925000 	 -6.062101 
9.930000 	 -5.342721 
9.935000 	 -4.855399 
9.940000 	 -4.136020 
9.945000 	 -3.463051 
9.950000 	 -2.766877 
9.955000 	 -2.279555 
9.960000 	 -1.328118 
9.965000 	 -0.840796 
9.970000 	 -0.051798 
9.975000 	 0.481935 
9.980000 	 1.224521 
9.985000 	 1.943900 
9.990000 	 2.524045 
9.995000 	 3.173808 
10.000000 	 3.916394 
10.005000 	 4.798214 
10.010000 	 5.192713 
10.015000 	 5.842475 
10.020000 	 6.608267 
10.025000 	 7.165206 
10.030000 	 7.907791 
10.035000 	 8.325496 
10.040000 	 8.766406 
10.045000 	 9.625021 
10.050000 	 10.228372 
10.055000 	 10.831722 
10.060000 	 11.249427 
10.065000 	 11.852778 
10.070000 	 12.409717 
10.075000 	 12.734598 
10.080000 	 13.152303 
10.085000 	 13.987711 
10.090000 	 14.219770 
10.095000 	 14.915944 
10.100000 	 15.356854 
10.105000 	 15.658529 
10.110000 	 16.169057 
10.115000 	 16.261880 
10.120000 	 16.934848 
10.125000 	 17.236524 
10.130000 	 17.654228 
10.135000 	 17.584611 
10.140000 	 17.909492 
10.145000 	 18.280785 
10.150000 	 18.582460 
10.155000 	 18.768107 
10.160000 	 18.907341 
10.165000 	 19.000165 
10.170000 	 19.209017 
10.175000 	 19.441075 
10.180000 	 19.673133 
10.185000 	 19.626721 
10.190000 	 19.742750 
10.195000 	 19.742750 
10.200000 	 19.858779 
10.205000 	 19.974808 
10.210000 	 19.742750 
10.215000 	 19.719544 
10.220000 	 19.673133 
10.225000 	 19.510692 
10.230000 	 19.394663 
10.235000 	 19.116194 
10.240000 	 18.884136 
10.245000 	 19.000165 
10.250000 	 18.744901 
10.255000 	 18.536049 
10.260000 	 18.187962 
10.265000 	 17.955904 
10.270000 	 17.538199 
10.275000 	 17.468582 
10.280000 	 17.236524 
10.285000 	 16.958054 
10.290000 	 16.215468 
10.295000 	 16.122645 
10.300000 	 15.565706 
10.305000 	 15.635323 
10.310000 	 14.823120 
10.315000 	 14.382210 
10.320000 	 14.150152 
10.325000 	 13.616419 
10.330000 	 13.082685 
10.335000 	 12.711392 
10.340000 	 12.340100 
10.345000 	 11.435073 
10.350000 	 11.156604 
10.355000 	 10.808517 
10.360000 	 10.135548 
10.365000 	 9.578609 
10.370000 	 8.743200 
10.375000 	 8.348702 
10.380000 	 7.977409 
10.385000 	 7.281235 
10.390000 	 6.654678 
10.395000 	 5.981710 
10.400000 	 5.610417 
10.405000 	 5.169507 
10.410000 	 4.264481 
10.415000 	 3.568307 
10.420000 	 3.150602 
10.425000 	 2.524045 
10.430000 	 2.059929 
10.435000 	 1.317344 
10.440000 	 0.505141 
10.445000 	 0.203465 
10.450000 	 -0.423091 
10.455000 	 -1.049648 
10.460000 	 -1.722616 
10.465000 	 -2.441996 
10.470000 	 -2.813289 
10.475000 	 -3.416640 
10.480000 	 -3.996785 
10.485000 	 -4.623341 
10.490000 	 -5.087457 
10.495000 	 -5.505162 
10.500000 	 -6.178130 
10.505000 	 -6.549423 
10.510000 	 -7.338420 
10.515000 	 -7.663301 
10.520000 	 -8.405887 
10.525000 	 -8.591533 
10.530000 	 -8.893209 
10.535000 	 -9.659000 
10.540000 	 -10.007087 
10.545000 	 -10.308763 
10.550000 	 -10.772879 
10.555000 	 -11.213789 
10.560000 	 -11.608288 
10.565000 	 -11.793934 
10.570000 	 -12.374079 
10.575000 	 -12.652549 
10.580000 	 -12.768578 
10.585000 	 -13.116665 
10.590000 	 -13.534369 
10.595000 	 -13.766427 
10.600000 	 -13.905662 
10.605000 	 -14.021691 
10.610000 	 -14.323366 
10.615000 	 -14.694659 
10.620000 	 -14.810688 
10.625000 	 -14.949923 
10.630000 	 -15.019541 
10.635000 	 -15.065952 
10.640000 	 -15.089158 
10.645000 	 -15.135570 
10.650000 	 -15.135570 
10.655000 	 -15.135570 
10.660000 	 -15.181981 
10.665000 	 -15.112364 
10.670000 	 -15.089158 
10.675000 	 -15.065952 
10.680000 	 -15.019541 
10.685000 	 -14.926717 
10.690000 	 -14.880306 
10.695000 	 -14.625042 
10.700000 	 -14.369778 
10.705000 	 -13.975279 
10.710000 	 -14.207337 
10.715000 	 -13.766427 
10.720000 	 -13.650398 
10.725000 	 -13.232694 
10.730000 	 -12.907813 
10.735000 	 -12.722166 
10.740000 	 -12.559726 
10.745000 	 -12.281256 
10.750000 	 -11.840346 
10.755000 	 -11.561876 
10.760000 	 -11.144172 
10.765000 	 -10.633644 
10.770000 	 -10.308763 
10.775000 	 -10.030293 
10.780000 	 -9.751824 
10.785000 	 -9.218090 
10.790000 	 -8.684357 
10.795000 	 -8.382681 
10.800000 	 -7.895359 
10.805000 	 -7.431243 
10.810000 	 -7.083156 
10.815000 	 -6.247748 
10.820000 	 -6.085307 
10.825000 	 -5.435544 
10.830000 	 -4.878605 
10.835000 	 -4.553724 
10.840000 	 -3.973579 
10.845000 	 -3.370228 
10.850000 	 -2.836495 
10.855000 	 -2.488408 
10.860000 	 -1.885057 
10.865000 	 -1.096060 
10.870000 	 -0.887207 
10.875000 	 -0.214239 
10.880000 	 0.249877 
10.885000 	 0.713993 
10.890000 	 1.386961 
10.895000 	 1.967106 
10.900000 	 2.477634 
10.905000 	 3.359454 
10.910000 	 3.197014 
10.915000 	 4.078834 
10.920000 	 4.682185 
10.925000 	 5.053478 
10.930000 	 5.633623 
10.935000 	 6.004916 
10.940000 	 6.585061 
10.945000 	 7.095588 
10.950000 	 7.466881 
10.955000 	 8.139849 
10.960000 	 8.348702 
10.965000 	 8.766406 
10.970000 	 9.323345 
10.975000 	 9.787461 
10.980000 	 10.251577 
10.985000 	 10.646076 
10.990000 	 11.272633 
10.995000 	 11.249427 
11.000000 	 11.527897 
11.005000 	 12.177659 
11.010000 	 12.432923 
11.015000 	 12.734598 
11.020000 	 13.013068 
11.025000 	 13.152303 
11.030000 	 13.662830 
11.035000 	 14.034123 
11.040000 	 14.242975 
11.045000 	 14.405416 
11.050000 	 14.498239 
11.055000 	 14.753503 
11.060000 	 14.962355 
11.065000 	 15.031973 
11.070000 	 15.194413 
11.075000 	 15.449677 
11.080000 	 15.472883 
11.085000 	 15.449677 
11.090000 	 15.565706 
11.095000 	 15.542500 
11.100000 	 15.751352 
11.105000 	 15.797764 
11.110000 	 15.704941 
11.115000 	 15.635323 
11.120000 	 15.681735 
11.125000 	 15.635323 
11.130000 	 15.542500 
11.135000 	 15.519294 
11.140000 	 15.496089 
11.145000 	 15.449677 
11.150000 	 15.217619 
11.155000 	 14.985561 
11.160000 	 14.846326 
11.165000 	 14.799915 
11.170000 	 14.521445 
11.175000 	 14.335799 
11.180000 	 14.266181 
11.185000 	 14.219770 
11.190000 	 13.570007 
11.195000 	 13.198714 
11.200000 	 13.198714 
11.205000 	 12.827421 
11.210000 	 12.595363 
11.215000 	 12.432923 
11.220000 	 11.899189 
11.225000 	 11.411868 
11.230000 	 11.295839 
11.235000 	 10.924546 
11.240000 	 10.553253 
11.245000 	 10.135548 
11.250000 	 9.717844 
11.255000 	 9.184111 
11.260000 	 8.650377 
11.265000 	 8.464731 
11.270000 	 8.232673 
11.275000 	 7.629322 
11.280000 	 7.234823 
11.285000 	 6.747501 
11.290000 	 6.144151 
11.295000 	 5.865681 
11.300000 	 5.540800 
11.305000 	 5.099889 
11.310000 	 4.589362 
11.315000 	 4.009217 
11.320000 	 3.382660 
11.325000 	 3.197014 
11.330000 	 2.570457 
11.335000 	 2.083135 
11.340000 	 1.735048 
11.345000 	 1.201315 
11.350000 	 0.481935 
11.355000 	 0.249877 
11.360000 	 -0.283857 
11.365000 	 -0.724767 
11.370000 	 -1.049648 
11.375000 	 -1.536970 
11.380000 	 -2.117115 
11.385000 	 -2.604437 
11.390000 	 -2.906112 
11.395000 	 -3.300611 
11.400000 	 -3.880756 
11.405000 	 -4.136020 
11.410000 	 -4.762576 
11.415000 	 -4.994634 
11.420000 	 -5.365927 
11.425000 	 -5.806837 
11.430000 	 -6.224542 
11.435000 	 -6.526217 
11.440000 	 -6.920716 
11.445000 	 -7.477655 
11.450000 	 -7.616890 
11.455000 	 -8.081006 
11.460000 	 -8.197035 
11.465000 	 -8.475504 
11.470000 	 -8.777180 
11.475000 	 -8.893209 
11.480000 	 -9.334119 
11.485000 	 -9.659000 
11.490000 	 -9.937470 
11.495000 	 -9.937470 
11.500000 	 -10.076705 
11.505000 	 -10.146322 
11.510000 	 -10.424792 
11.515000 	 -10.656850 
11.520000 	 -10.749673 
11.525000 	 -10.888908 
11.530000 	 -11.074554 
11.535000 	 -11.144172 
11.540000 	 -11.329818 
11.545000 	 -11.329818 
11.550000 	 -11.353024 
11.555000 	 -11.399435 
11.560000 	 -11.445847 
11.565000 	 -11.399435 
11.570000 	 -11.469053 
11.575000 	 -11.329818 
11.580000 	 -11.306612 
11.585000 	 -11.213789 
11.590000 	 -11.167377 
11.595000 	 -11.028143 
11.600000 	 -10.865702 
11.605000 	 -10.610438 
11.610000 	 -10.633644 
11.615000 	 -10.401586 
11.620000 	 -10.308763 
11.625000 	 -10.099911 
11.630000 	 -10.007087 
11.635000 	 -9.960676 
11.640000 	 -9.705412 
11.645000 	 -9.473354 
11.650000 	 -9.125267 
11.655000 	 -8.870003 
11.660000 	 -8.614739 
11.665000 	 -8.313064 
11.670000 	 -8.475504 
11.675000 	 -7.872154 
11.680000 	 -7.640096 
11.685000 	 -7.315214 
11.690000 	 -6.990333 
11.695000 	 -6.549423 
11.700000 	 -6.247748 
11.705000 	 -5.737220 
11.710000 	 -5.574779 
11.715000 	 -5.133869 
11.720000 	 -4.716165 
11.725000 	 -4.460901 
11.730000 	 -3.973579 
11.735000 	 -3.787933 
11.740000 	 -3.323817 
11.745000 	 -2.859700 
11.750000 	 -2.558025 
11.755000 	 -2.117115 
11.760000 	 -1.792234 
11.765000 	 -1.096060 
11.770000 	 -0.887207 
11.775000 	 -0.330268 
11.780000 	 0.041025 
11.785000 	 0.249877 
11.790000 	 0.435523 
11.795000 	 1.201315 
11.800000 	 1.711842 
11.805000 	 2.245576 
11.810000 	 2.454428 
11.815000 	 2.663280 
11.820000 	 3.220220 
11.825000 	 3.359454 
11.830000 	 4.055628 
11.835000 	 4.403715 
11.840000 	 4.751802 
11.845000 	 5.169507 
11.850000 	 5.633623 
11.855000 	 5.865681 
11.860000 	 6.236974 
11.865000 	 6.585061 
11.870000 	 7.002765 
11.875000 	 7.258029 
11.880000 	 7.629322 
11.885000 	 8.047026 
11.890000 	 8.325496 
11.895000 	 8.441525 
11.900000 	 8.719995 
11.905000 	 8.928847 
11.910000 	 9.207316 
11.915000 	 9.694638 
11.920000 	 9.926696 
11.925000 	 10.112343 
11.930000 	 10.344401 
11.935000 	 10.669282 
11.940000 	 10.785311 
11.945000 	 11.203015 
11.950000 	 11.226221 
11.955000 	 11.226221 
11.960000 	 11.295839 
11.965000 	 11.527897 
11.970000 	 11.481485 
11.975000 	 11.806366 
11.980000 	 12.015218 
11.985000 	 12.108042 
11.990000 	 12.247276 
11.995000 	 12.270482 
12.000000 	 12.340100 
12.005000 	 12.548952 
12.010000 	 12.386511 
12.015000 	 12.340100 
12.020000 	 12.386511 
12.025000 	 12.293688 
12.030000 	 12.293688 
12.035000 	 12.247276 
12.040000 	 12.131247 
12.045000 	 12.084836 
12.050000 	 11.829572 
12.055000 	 11.713543 
12.060000 	 11.435073 
12.065000 	 11.388662 
12.070000 	 11.388662 
12.075000 	 11.203015 
12.080000 	 11.295839 
12.085000 	 11.179809 
12.090000 	 10.785311 
12.095000 	 10.715693 
12.100000 	 10.530047 
12.105000 	 10.274783 
12.110000 	 10.089137 
12.115000 	 9.787461 
12.120000 	 9.578609 
12.125000 	 9.184111 
12.130000 	 8.789612 
12.135000 	 8.696789 
12.140000 	 8.464731 
12.145000 	 8.279084 
12.150000 	 8.139849 
12.155000 	 7.652528 
12.160000 	 7.420470 
12.165000 	 7.327646 
12.170000 	 6.561855 
12.175000 	 6.492238 
12.180000 	 6.028122 
12.185000 	 5.865681 
12.190000 	 5.564006 
12.195000 	 5.123095 
12.200000 	 4.798214 
12.205000 	 4.914243 
12.210000 	 4.264481 
12.215000 	 3.591512 
12.220000 	 3.150602 
12.225000 	 3.220220 
12.230000 	 2.663280 
12.235000 	 2.454428 
12.240000 	 1.967106 
12.245000 	 1.688637 
12.250000 	 1.317344 
12.255000 	 0.830022 
12.260000 	 0.458729 
12.265000 	 0.226671 
12.270000 	 -0.075004 
12.275000 	 -0.307062 
12.280000 	 -0.724767 
12.285000 	 -1.049648 
12.290000 	 -1.212089 
12.295000 	 -1.769028 
12.300000 	 -2.047497 
12.305000 	 -2.325967 
12.310000 	 -2.720466 
12.315000 	 -2.952524 
12.320000 	 -3.393434 
12.325000 	 -3.695109 
12.330000 	 -3.927167 
12.335000 	 -4.228843 
12.340000 	 -4.576930 
12.345000 	 -4.716165 
12.350000 	 -4.901811 
12.355000 	 -5.226692 
12.360000 	 -5.528368 
12.365000 	 -5.644397 
12.370000 	 -5.876455 
12.375000 	 -6.085307 
12.380000 	 -6.294159 
12.385000 	 -6.410188 
12.390000 	 -6.688658 
12.395000 	 -6.851098 
12.400000 	 -6.920716 
12.405000 	 -7.083156 
12.410000 	 -7.547272 
12.415000 	 -7.547272 
12.420000 	 -7.593684 
12.425000 	 -7.640096 
12.430000 	 -7.616890 
12.435000 	 -7.709713 
12.440000 	 -7.964977 
12.445000 	 -8.011388 
12.450000 	 -8.127417 
12.455000 	 -8.173829 
12.460000 	 -8.243446 
12.465000 	 -8.266652 
12.470000 	 -8.220241 
12.475000 	 -8.197035 
12.480000 	 -7.988183 
12.485000 	 -8.034594 
12.490000 	 -7.918565 
12.495000 	 -7.779330 
12.500000 	 -7.640096 
12.505000 	 -7.454449 
12.510000 	 -7.709713 
12.515000 	 -7.547272 
12.520000 	 -7.524067 
12.525000 	 -7.431243 
12.530000 	 -7.152774 
12.535000 	 -7.013539 
12.540000 	 -6.943922 
12.545000 	 -6.688658 
12.550000 	 -6.642246 
12.555000 	 -6.410188 
12.560000 	 -6.108513 
12.565000 	 -5.969278 
12.570000 	 -5.783631 
12.575000 	 -5.528368 
12.580000 	 -5.296310 
12.585000 	 -5.226692 
12.590000 	 -4.948223 
12.595000 	 -4.623341 
12.600000 	 -4.507312 
12.605000 	 -4.019991 
12.610000 	 -3.950373 
12.615000 	 -3.741521 
12.620000 	 -3.370228 
12.625000 	 -3.138170 
12.630000 	 -2.859700 
12.635000 	 -2.697260 
12.640000 	 -2.511613 
12.645000 	 -2.070703 
12.650000 	 -1.769028 
12.655000 	 -1.258500 
12.660000 	 -1.258500 
12.665000 	 -0.910413 
12.670000 	 -0.562326 
12.675000 	 -0.399886 
12.680000 	 0.041025 
12.685000 	 0.203465 
12.690000 	 0.226671 
12.695000 	 0.713993 
12.700000 	 1.224521 
12.705000 	 1.642225 
12.710000 	 1.642225 
12.715000 	 2.059929 
12.720000 	 2.431222 
12.725000 	 2.570457 
12.730000 	 2.848927 
12.735000 	 3.150602 
12.740000 	 3.313043 
12.745000 	 3.637924 
12.750000 	 3.916394 
12.755000 	 4.287686 
12.760000 	 4.612568 
12.765000 	 4.751802 
12.770000 	 5.030272 
12.775000 	 5.378359 
12.780000 	 5.587211 
12.785000 	 5.819269 
12.790000 	 5.912093 
12.795000 	 6.120945 
12.800000 	 6.515443 
12.805000 	 6.817119 
12.810000 	 6.886736 
12.815000 	 7.095588 
12.820000 	 7.258029 
12.825000 	 7.466881 
12.830000 	 7.582910 
12.835000 	 7.838174 
12.840000 	 7.954203 
12.845000 	 8.186261 
12.850000 	 8.279084 
12.855000 	 8.371907 
12.860000 	 8.371907 
12.865000 	 8.418319 
12.870000 	 8.418319 
12.875000 	 8.673583 
12.880000 	 8.673583 
12.885000 	 8.743200 
12.890000 	 8.789612 
12.895000 	 8.789612 
12.900000 	 8.719995 
12.905000 	 8.975258 
12.910000 	 8.673583 
12.915000 	 8.812818 
12.920000 	 8.812818 
12.925000 	 8.812818 
12.930000 	 8.766406 
12.935000 	 8.812818 
12.940000 	 8.650377 
12.945000 	 8.719995 
12.950000 	 8.650377 
12.955000 	 8.719995 
12.960000 	 8.719995 
12.965000 	 8.603966 
12.970000 	 8.325496 
12.975000 	 8.464731 
12.980000 	 8.302290 
12.985000 	 8.348702 
12.990000 	 8.279084 
12.995000 	 8.139849 
13.000000 	 7.954203 
13.005000 	 7.930997 
13.010000 	 7.443675 
13.015000 	 7.466881 
13.020000 	 7.211617 
13.025000 	 7.165206 
13.030000 	 7.025971 
13.035000 	 6.724296 
13.040000 	 6.538649 
13.045000 	 6.329797 
13.050000 	 6.028122 
13.055000 	 5.888887 
13.060000 	 5.772858 
13.065000 	 5.633623 
13.070000 	 5.471182 
13.075000 	 5.215918 
13.080000 	 4.867831 
13.085000 	 4.682185 
13.090000 	 4.566156 
13.095000 	 4.241275 
13.100000 	 4.194863 
13.105000 	 3.916394 
13.110000 	 3.359454 
13.115000 	 3.243425 
13.120000 	 3.150602 
13.125000 	 2.663280 
13.130000 	 2.524045 
13.135000 	 2.454428 
13.140000 	 2.059929 
13.145000 	 1.827871 
13.150000 	 1.619019 
13.155000 	 1.247726 
13.160000 	 1.131697 
13.165000 	 0.783610 
13.170000 	 0.412318 
13.175000 	 0.249877 
13.180000 	 0.249877 
13.185000 	 -0.005387 
13.190000 	 -0.214239 
13.195000 	 -0.330268 
13.200000 	 -0.608738 
13.205000 	 -0.817590 
13.210000 	 -1.072854 
13.215000 	 -1.188883 
13.220000 	 -1.490558 
13.225000 	 -1.606587 
13.230000 	 -1.954674 
13.235000 	 -2.325967 
13.240000 	 -2.511613 
13.245000 	 -2.627642 
13.250000 	 -2.882906 
13.255000 	 -2.859700 
13.260000 	 -2.975729 
13.265000 	 -3.207788 
13.270000 	 -3.323817 
13.275000 	 -3.555875 
13.280000 	 -3.741521 
13.285000 	 -3.811138 
13.290000 	 -4.019991 
13.295000 	 -3.973579 
13.300000 	 -4.112814 
13.305000 	 -4.275254 
13.310000 	 -4.368078 
13.315000 	 -4.530518 
13.320000 	 -4.576930 
13.325000 	 -4.669753 
13.330000 	 -4.669753 
13.335000 	 -4.716165 
13.340000 	 -4.855399 
13.345000 	 -4.808988 
13.350000 	 -4.785782 
13.355000 	 -4.785782 
13.360000 	 -4.808988 
13.365000 	 -4.832194 
13.370000 	 -4.878605 
13.375000 	 -4.762576 
13.380000 	 -4.739370 
13.385000 	 -4.762576 
13.390000 	 -4.901811 
13.395000 	 -4.600136 
13.400000 	 -4.484107 
13.405000 	 -4.484107 
13.410000 	 -4.600136 
13.415000 	 -4.600136 
13.420000 	 -4.460901 
13.425000 	 -4.344872 
13.430000 	 -4.252049 
13.435000 	 -4.275254 
13.440000 	 -4.182431 
13.445000 	 -4.112814 
13.450000 	 -3.927167 
13.455000 	 -3.927167 
13.460000 	 -3.834344 
13.465000 	 -3.602286 
13.470000 	 -3.555875 
13.475000 	 -3.300611 
13.480000 	 -3.184582 
13.485000 	 -2.998935 
13.490000 	 -2.998935 
13.495000 	 -2.790083 
13.500000 	 -2.650848 
13.505000 	 -2.372379 
13.510000 	 -2.488408 
13.515000 	 -2.256350 
13.520000 	 -1.908263 
13.525000 	 -1.792234 
13.530000 	 -1.351323 
13.535000 	 -1.096060 
13.540000 	 -1.072854 
13.545000 	 -1.003236 
13.550000 	 -0.840796 
13.555000 	 -0.678355 
13.560000 	 -0.446297 
13.565000 	 -0.214239 
13.570000 	 -0.028593 
13.575000 	 0.180260 
13.580000 	 0.319494 
13.585000 	 0.365906 
13.590000 	 0.319494 
13.595000 	 0.713993 
13.600000 	 0.969257 
13.605000 	 1.386961 
13.610000 	 1.433373 
13.615000 	 1.619019 
13.620000 	 1.827871 
13.625000 	 1.967106 
13.630000 	 2.384811 
13.635000 	 2.500840 
13.640000 	 2.500840 
13.645000 	 2.640075 
13.650000 	 2.779309 
13.655000 	 3.150602 
13.660000 	 3.220220 
13.665000 	 3.382660 
13.670000 	 3.382660 
13.675000 	 3.452278 
13.680000 	 3.707541 
13.685000 	 3.986011 
13.690000 	 4.218069 
13.695000 	 4.287686 
13.700000 	 4.519744 
13.705000 	 4.867831 
13.710000 	 4.728597 
13.715000 	 4.891037 
13.720000 	 4.914243 
13.725000 	 5.053478 
13.730000 	 5.285536 
13.735000 	 5.355153 
13.740000 	 5.494388 
13.745000 	 5.540800 
13.750000 	 5.703240 
13.755000 	 5.680035 
13.760000 	 5.749652 
13.765000 	 5.888887 
13.770000 	 5.888887 
13.775000 	 5.981710 
13.780000 	 5.958504 
13.785000 	 5.912093 
13.790000 	 5.912093 
13.795000 	 5.958504 
13.800000 	 6.004916 
13.805000 	 6.004916 
13.810000 	 6.004916 
13.815000 	 6.004916 
13.820000 	 6.028122 
13.825000 	 6.004916 
13.830000 	 6.004916 
13.835000 	 5.958504 
13.840000 	 5.981710 
13.845000 	 5.981710 
13.850000 	 5.912093 
13.855000 	 5.912093 
13.860000 	 5.935298 
13.865000 	 5.912093 
13.870000 	 5.842475 
13.875000 	 5.888887 
13.880000 	 5.726446 
13.885000 	 5.680035 
13.890000 	 5.656829 
13.895000 	 5.540800 
13.900000 	 5.494388 
13.905000 	 5.680035 
13.910000 	 5.308742 
13.915000 	 5.308742 
13.920000 	 5.123095 
13.925000 	 4.914243 
13.930000 	 4.960655 
13.935000 	 4.728597 
13.940000 	 4.705391 
13.945000 	 4.612568 
13.950000 	 4.496539 
13.955000 	 4.287686 
13.960000 	 4.171657 
13.965000 	 4.102040 
13.970000 	 3.893188 
13.975000 	 3.730747 
13.980000 	 3.429072 
13.985000 	 3.336249 
13.990000 	 3.313043 
13.995000 	 3.197014 
14.000000 	 3.220220 
14.005000 	 3.127396 
14.010000 	 2.547251 
14.015000 	 2.570457 
14.020000 	 2.547251 
14.025000 	 2.524045 
14.030000 	 2.500840 
14.035000 	 2.083135 
14.040000 	 1.967106 
14.045000 	 1.851077 
14.050000 	 1.711842 
14.055000 	 1.619019 
14.060000 	 1.270932 
14.065000 	 1.247726 
14.070000 	 1.108492 
14.075000 	 0.830022 
14.080000 	 0.783610 
14.085000 	 0.505141 
14.090000 	 0.389112 
14.095000 	 0.342700 
14.100000 	 0.365906 
14.105000 	 0.342700 
14.110000 	 0.133848 
14.115000 	 0.041025 
14.120000 	 -0.237445 
14.125000 	 -0.191033 
14.130000 	 -0.283857 
14.135000 	 -0.376680 
14.140000 	 -0.678355 
14.145000 	 -0.840796 
14.150000 	 -0.864002 
14.155000 	 -0.933619 
14.160000 	 -1.119265 
14.165000 	 -1.119265 
14.170000 	 -1.165677 
14.175000 	 -1.142471 
14.180000 	 -1.142471 
14.185000 	 -1.281706 
14.190000 	 -1.513764 
14.195000 	 -1.583381 
14.200000 	 -1.652999 
14.205000 	 -1.583381 
14.210000 	 -1.861851 
14.215000 	 -1.885057 
14.220000 	 -1.908263 
14.225000 	 -1.954674 
14.230000 	 -1.977880 
14.235000 	 -2.117115 
14.240000 	 -2.186732 
14.245000 	 -2.117115 
14.250000 	 -2.209938 
14.255000 	 -2.186732 
14.260000 	 -2.256350 
14.265000 	 -2.140321 
14.270000 	 -2.325967 
14.275000 	 -2.163526 
14.280000 	 -2.163526 
14.285000 	 -2.163526 
14.290000 	 -2.140321 
14.295000 	 -2.093909 
14.300000 	 -2.001086 
14.305000 	 -1.815439 
14.310000 	 -1.977880 
14.315000 	 -1.954674 
14.320000 	 -1.908263 
14.325000 	 -1.885057 
14.330000 	 -1.745822 
14.335000 	 -1.769028 
14.340000 	 -1.676205 
14.345000 	 -1.676205 
14.350000 	 -1.513764 
14.355000 	 -1.420941 
14.360000 	 -1.328118 
14.365000 	 -1.165677 
14.370000 	 -1.188883 
14.375000 	 -1.096060 
14.380000 	 -1.142471 
14.385000 	 -1.049648 
14.390000 	 -1.049648 
14.395000 	 -0.956825 
14.400000 	 -0.840796 
14.405000 	 -0.701561 
14.410000 	 -0.701561 
14.415000 	 -0.631944 
14.420000 	 -0.423091 
14.425000 	 -0.376680 
14.430000 	 -0.191033 
14.435000 	 -0.214239 
14.440000 	 -0.144622 
14.445000 	 -0.005387 
14.450000 	 0.087436 
14.455000 	 0.157054 
14.460000 	 0.203465 
14.465000 	 0.296289 
14.470000 	 0.412318 
14.475000 	 0.389112 
14.480000 	 0.435523 
14.485000 	 0.481935 
14.490000 	 0.690787 
14.495000 	 0.783610 
14.500000 	 0.969257 
14.505000 	 1.085286 
14.510000 	 1.178109 
14.515000 	 1.270932 
14.520000 	 1.386961 
14.525000 	 1.572608 
14.530000 	 1.688637 
14.535000 	 1.642225 
14.540000 	 1.827871 
14.545000 	 1.874283 
14.550000 	 1.920695 
14.555000 	 1.967106 
14.560000 	 2.152753 
14.565000 	 2.175958 
14.570000 	 2.361605 
14.575000 	 2.524045 
14.580000 	 2.477634 
14.585000 	 2.500840 
14.590000 	 2.524045 
14.595000 	 2.547251 
14.600000 	 2.686486 
14.605000 	 2.825721 
14.610000 	 2.779309 
14.615000 	 3.034573 
14.620000 	 3.011367 
14.625000 	 3.127396 
14.630000 	 3.173808 
14.635000 	 3.127396 
14.640000 	 3.127396 
14.645000 	 3.197014 
14.650000 	 3.127396 
14.655000 	 3.243425 
14.660000 	 3.243425 
14.665000 	 3.313043 
14.670000 	 3.289837 
14.675000 	 3.266631 
14.680000 	 3.313043 
14.685000 	 3.336249 
14.690000 	 3.289837 
14.695000 	 3.359454 
14.700000 	 3.452278 
14.705000 	 3.429072 
14.710000 	 3.289837 
14.715000 	 3.336249 
14.720000 	 3.313043 
14.725000 	 3.336249 
14.730000 	 3.336249 
14.735000 	 3.405866 
14.740000 	 3.289837 
14.745000 	 3.313043 
14.750000 	 3.289837 
14.755000 	 3.313043 
14.760000 	 3.313043 
14.765000 	 3.382660 
14.770000 	 3.197014 
14.775000 	 3.313043 
14.780000 	 3.382660 
14.785000 	 3.197014 
14.790000 	 3.173808 
14.795000 	 3.197014 
14.800000 	 3.336249 
14.805000 	 3.220220 
14.810000 	 3.057779 
14.815000 	 3.127396 
14.820000 	 3.173808 
14.825000 	 3.127396 
14.830000 	 3.127396 
14.835000 	 2.988162 
14.840000 	 2.872133 
14.845000 	 2.732898 
14.850000 	 2.686486 
14.855000 	 2.663280 
14.860000 	 2.431222 
14.865000 	 2.524045 
14.870000 	 2.477634 
14.875000 	 2.431222 
14.880000 	 2.500840 
14.885000 	 2.500840 
14.890000 	 2.431222 
14.895000 	 2.454428 
14.900000 	 2.291987 
14.905000 	 2.338399 
14.910000 	 2.152753 
14.915000 	 2.013518 
14.920000 	 1.967106 
14.925000 	 1.920695 
14.930000 	 2.083135 
14.935000 	 1.920695 
14.940000 	 1.897489 
14.945000 	 1.827871 
14.950000 	 1.642225 
14.955000 	 1.619019 
14.960000 	 1.642225 
14.965000 	 1.549402 
14.970000 	 1.317344 
14.975000 	 1.340550 
14.980000 	 1.270932 
14.985000 	 1.270932 
14.990000 	 1.131697 
14.995000 	 1.247726 
