times (s) 	 Angular position (degrees) 
0.000000 	 -82.689552 
0.005000 	 -82.689552 
0.010000 	 -82.689552 
0.015000 	 -82.689552 
0.020000 	 -82.689552 
0.025000 	 -82.689552 
0.030000 	 -82.689552 
0.035000 	 -82.689552 
0.040000 	 -82.689552 
0.045000 	 -82.689552 
0.050000 	 -82.689552 
0.055000 	 -82.689552 
0.060000 	 -82.689552 
0.065000 	 -82.689552 
0.070000 	 -82.689552 
0.075000 	 -82.689552 
0.080000 	 -82.689552 
0.085000 	 -82.689552 
0.090000 	 -82.689552 
0.095000 	 -82.689552 
0.100000 	 -82.689552 
0.105000 	 -82.689552 
0.110000 	 -82.689552 
0.115000 	 -82.689552 
0.120000 	 -82.773085 
0.125000 	 -82.689552 
0.130000 	 -82.689552 
0.135000 	 -82.773085 
0.140000 	 -82.689552 
0.145000 	 -82.689552 
0.150000 	 -82.689552 
0.155000 	 -82.689552 
0.160000 	 -82.689552 
0.165000 	 -82.773085 
0.170000 	 -82.689552 
0.175000 	 -82.689552 
0.180000 	 -82.689552 
0.185000 	 -82.689552 
0.190000 	 -82.689552 
0.195000 	 -82.689552 
0.200000 	 -82.689552 
0.205000 	 -82.689552 
0.210000 	 -82.689552 
0.215000 	 -82.689552 
0.220000 	 -82.689552 
0.225000 	 -82.689552 
0.230000 	 -82.689552 
0.235000 	 -82.689552 
0.240000 	 -82.689552 
0.245000 	 -82.689552 
0.250000 	 -82.606018 
0.255000 	 -82.689552 
0.260000 	 -82.689552 
0.265000 	 -82.689552 
0.270000 	 -82.689552 
0.275000 	 -82.606018 
0.280000 	 -82.689552 
0.285000 	 -82.606018 
0.290000 	 -82.606018 
0.295000 	 -82.689552 
0.300000 	 -82.689552 
0.305000 	 -82.606018 
0.310000 	 -82.606018 
0.315000 	 -82.689552 
0.320000 	 -82.606018 
0.325000 	 -82.606018 
0.330000 	 -82.606018 
0.335000 	 -82.606018 
0.340000 	 -82.606018 
0.345000 	 -82.606018 
0.350000 	 -82.606018 
0.355000 	 -82.689552 
0.360000 	 -82.606018 
0.365000 	 -82.689552 
0.370000 	 -82.689552 
0.375000 	 -82.606018 
0.380000 	 -82.606018 
0.385000 	 -82.689552 
0.390000 	 -82.689552 
0.395000 	 -82.689552 
0.400000 	 -82.689552 
0.405000 	 -82.606018 
0.410000 	 -82.689552 
0.415000 	 -82.689552 
0.420000 	 -82.689552 
0.425000 	 -82.689552 
0.430000 	 -82.689552 
0.435000 	 -82.689552 
0.440000 	 -82.689552 
0.445000 	 -82.689552 
0.450000 	 -82.689552 
0.455000 	 -82.689552 
0.460000 	 -82.689552 
0.465000 	 -82.689552 
0.470000 	 -82.689552 
0.475000 	 -82.689552 
0.480000 	 -82.689552 
0.485000 	 -82.689552 
0.490000 	 -82.689552 
0.495000 	 -82.689552 
0.500000 	 -82.773085 
0.505000 	 -82.773085 
0.510000 	 -82.689552 
0.515000 	 -82.773085 
0.520000 	 -82.689552 
0.525000 	 -82.689552 
0.530000 	 -82.689552 
0.535000 	 -82.689552 
0.540000 	 -82.689552 
0.545000 	 -82.689552 
0.550000 	 -82.773085 
0.555000 	 -82.689552 
0.560000 	 -82.689552 
0.565000 	 -82.689552 
0.570000 	 -82.773085 
0.575000 	 -82.689552 
0.580000 	 -82.773085 
0.585000 	 -82.773085 
0.590000 	 -82.773085 
0.595000 	 -82.773085 
0.600000 	 -82.773085 
0.605000 	 -82.773085 
0.610000 	 -82.773085 
0.615000 	 -82.773085 
0.620000 	 -82.773085 
0.625000 	 -82.773085 
0.630000 	 -82.773085 
0.635000 	 -82.773085 
0.640000 	 -82.773085 
0.645000 	 -82.773085 
0.650000 	 -82.773085 
0.655000 	 -82.773085 
0.660000 	 -82.773085 
0.665000 	 -82.773085 
0.670000 	 -82.773085 
0.675000 	 -82.773085 
0.680000 	 -82.773085 
0.685000 	 -82.773085 
0.690000 	 -82.773085 
0.695000 	 -82.773085 
0.700000 	 -82.773085 
0.705000 	 -82.773085 
0.710000 	 -82.773085 
0.715000 	 -82.773085 
0.720000 	 -82.773085 
0.725000 	 -82.773085 
0.730000 	 -82.773085 
0.735000 	 -82.773085 
0.740000 	 -82.856619 
0.745000 	 -82.856619 
0.750000 	 -82.856619 
0.755000 	 -82.773085 
0.760000 	 -82.856619 
0.765000 	 -82.856619 
0.770000 	 -82.856619 
0.775000 	 -82.856619 
0.780000 	 -82.856619 
0.785000 	 -82.940152 
0.790000 	 -82.940152 
0.795000 	 -82.940152 
0.800000 	 -82.940152 
0.805000 	 -82.940152 
0.810000 	 -82.940152 
0.815000 	 -83.023686 
0.820000 	 -83.023686 
0.825000 	 -83.023686 
0.830000 	 -83.023686 
0.835000 	 -83.023686 
0.840000 	 -83.023686 
0.845000 	 -83.023686 
0.850000 	 -83.023686 
0.855000 	 -83.023686 
0.860000 	 -83.023686 
0.865000 	 -83.023686 
0.870000 	 -83.023686 
0.875000 	 -83.023686 
0.880000 	 -83.023686 
0.885000 	 -83.023686 
0.890000 	 -83.023686 
0.895000 	 -83.023686 
0.900000 	 -83.023686 
0.905000 	 -83.023686 
0.910000 	 -83.023686 
0.915000 	 -82.940152 
0.920000 	 -82.940152 
0.925000 	 -82.940152 
0.930000 	 -82.856619 
0.935000 	 -82.856619 
0.940000 	 -82.773085 
0.945000 	 -82.773085 
0.950000 	 -82.773085 
0.955000 	 -82.689552 
0.960000 	 -82.606018 
0.965000 	 -82.606018 
0.970000 	 -82.606018 
0.975000 	 -82.522485 
0.980000 	 -82.522485 
0.985000 	 -82.438951 
0.990000 	 -82.438951 
0.995000 	 -82.355417 
1.000000 	 -82.188350 
1.005000 	 -82.104817 
1.010000 	 -82.021283 
1.015000 	 -81.770683 
1.020000 	 -81.687149 
1.025000 	 -81.436548 
1.030000 	 -81.269481 
1.035000 	 -80.935347 
1.040000 	 -80.601213 
1.045000 	 -80.434146 
1.050000 	 -80.267079 
1.055000 	 -79.932944 
1.060000 	 -79.598810 
1.065000 	 -79.264676 
1.070000 	 -78.930542 
1.075000 	 -78.512874 
1.080000 	 -78.262273 
1.085000 	 -77.928139 
1.090000 	 -77.761072 
1.095000 	 -77.510471 
1.100000 	 -77.009270 
1.105000 	 -76.675135 
1.110000 	 -76.257468 
1.115000 	 -76.090401 
1.120000 	 -75.923333 
1.125000 	 -75.338599 
1.130000 	 -75.004464 
1.135000 	 -74.670330 
1.140000 	 -74.252662 
1.145000 	 -73.918528 
1.150000 	 -73.584394 
1.155000 	 -73.333793 
1.160000 	 -72.999659 
1.165000 	 -72.749058 
1.170000 	 -72.498458 
1.175000 	 -72.247857 
1.180000 	 -72.080790 
1.185000 	 -71.913723 
1.190000 	 -71.746656 
1.195000 	 -71.412521 
1.200000 	 -71.078387 
1.205000 	 -70.911320 
1.210000 	 -70.744253 
1.215000 	 -70.159518 
1.220000 	 -69.825384 
1.225000 	 -69.157115 
1.230000 	 -68.739447 
1.235000 	 -68.071179 
1.240000 	 -67.235843 
1.245000 	 -66.567575 
1.250000 	 -65.732239 
1.255000 	 -64.729837 
1.260000 	 -64.061568 
1.265000 	 -62.975632 
1.270000 	 -61.889696 
1.275000 	 -60.803759 
1.280000 	 -59.717823 
1.285000 	 -58.464820 
1.290000 	 -57.211816 
1.295000 	 -55.875279 
1.300000 	 -54.538742 
1.305000 	 -53.202205 
1.310000 	 -51.615068 
1.315000 	 -50.027930 
1.320000 	 -48.607860 
1.325000 	 -46.937189 
1.330000 	 -45.350051 
1.335000 	 -43.345245 
1.340000 	 -41.591041 
1.345000 	 -39.753302 
1.350000 	 -37.915564 
1.355000 	 -36.077826 
1.360000 	 -34.073020 
1.365000 	 -32.068215 
1.370000 	 -30.063410 
1.375000 	 -28.142138 
1.380000 	 -25.970265 
1.385000 	 -23.881926 
1.390000 	 -21.459453 
1.395000 	 -19.454648 
1.400000 	 -17.199242 
1.405000 	 -15.027369 
1.410000 	 -12.688429 
1.415000 	 -10.349490 
1.420000 	 -8.177617 
1.425000 	 -5.755144 
1.430000 	 -3.249137 
1.435000 	 -0.826664 
1.440000 	 1.345209 
1.445000 	 3.767682 
1.450000 	 6.357222 
1.455000 	 8.529095 
1.460000 	 11.118635 
1.465000 	 13.374041 
1.470000 	 15.712981 
1.475000 	 18.051920 
1.480000 	 20.641461 
1.485000 	 22.813333 
1.490000 	 24.901672 
1.495000 	 27.240612 
1.500000 	 29.496018 
1.505000 	 31.751424 
1.510000 	 33.839763 
1.515000 	 35.844568 
1.520000 	 37.932907 
1.525000 	 40.271847 
1.530000 	 42.193119 
1.535000 	 44.114391 
1.540000 	 46.035663 
1.545000 	 48.040468 
1.550000 	 49.794673 
1.555000 	 51.548878 
1.560000 	 53.136015 
1.565000 	 54.890220 
1.570000 	 56.560891 
1.575000 	 58.148029 
1.580000 	 59.568099 
1.585000 	 61.238770 
1.590000 	 62.324707 
1.595000 	 63.828311 
1.600000 	 65.081314 
1.605000 	 66.334317 
1.610000 	 67.336720 
1.615000 	 68.506190 
1.620000 	 69.508593 
1.625000 	 70.510995 
1.630000 	 71.429865 
1.635000 	 72.348734 
1.640000 	 73.100536 
1.645000 	 73.768804 
1.650000 	 74.437073 
1.655000 	 75.188875 
1.660000 	 75.690076 
1.665000 	 76.191277 
1.670000 	 76.776012 
1.675000 	 76.859546 
1.680000 	 77.110147 
1.685000 	 77.277214 
1.690000 	 77.444281 
1.695000 	 77.444281 
1.700000 	 77.444281 
1.705000 	 77.444281 
1.710000 	 77.444281 
1.715000 	 77.277214 
1.720000 	 77.193680 
1.725000 	 76.943079 
1.730000 	 76.776012 
1.735000 	 76.441878 
1.740000 	 75.690076 
1.745000 	 75.272408 
1.750000 	 74.771207 
1.755000 	 74.019405 
1.760000 	 73.267603 
1.765000 	 72.599334 
1.770000 	 71.680465 
1.775000 	 70.928663 
1.780000 	 70.009794 
1.785000 	 68.923858 
1.790000 	 67.921455 
1.795000 	 66.751985 
1.800000 	 65.582515 
1.805000 	 64.329512 
1.810000 	 62.992975 
1.815000 	 61.823505 
1.820000 	 60.403435 
1.825000 	 58.983364 
1.830000 	 57.396227 
1.835000 	 55.892623 
1.840000 	 54.305485 
1.845000 	 52.551280 
1.850000 	 50.964143 
1.855000 	 49.209938 
1.860000 	 47.455733 
1.865000 	 45.450928 
1.870000 	 43.696723 
1.875000 	 41.691918 
1.880000 	 39.770646 
1.885000 	 37.765840 
1.890000 	 35.677501 
1.895000 	 33.672696 
1.900000 	 31.584357 
1.905000 	 29.412484 
1.910000 	 27.157078 
1.915000 	 24.901672 
1.920000 	 22.896867 
1.925000 	 20.808528 
1.930000 	 18.302521 
1.935000 	 16.047115 
1.940000 	 13.791709 
1.945000 	 11.452769 
1.950000 	 9.280897 
1.955000 	 6.941957 
1.960000 	 4.603017 
1.965000 	 2.347611 
1.970000 	 0.008672 
1.975000 	 -2.163201 
1.980000 	 -4.418607 
1.985000 	 -6.506946 
1.990000 	 -8.762352 
1.995000 	 -10.850691 
2.000000 	 -13.106097 
2.005000 	 -15.277970 
2.010000 	 -17.366309 
2.015000 	 -19.538181 
2.020000 	 -21.375919 
2.025000 	 -23.714859 
2.030000 	 -25.469064 
2.035000 	 -27.306802 
2.040000 	 -29.228074 
2.045000 	 -31.316413 
2.050000 	 -32.903551 
2.055000 	 -34.824822 
2.060000 	 -36.579027 
2.065000 	 -38.333232 
2.070000 	 -39.920370 
2.075000 	 -41.423974 
2.080000 	 -43.094645 
2.085000 	 -44.765316 
2.090000 	 -46.018319 
2.095000 	 -47.605457 
2.100000 	 -48.941994 
2.105000 	 -50.027930 
2.110000 	 -51.364467 
2.115000 	 -52.450403 
2.120000 	 -53.703407 
2.125000 	 -54.622276 
2.130000 	 -55.708212 
2.135000 	 -56.710615 
2.140000 	 -57.462417 
2.145000 	 -58.381286 
2.150000 	 -59.216622 
2.155000 	 -59.968424 
2.160000 	 -60.553159 
2.165000 	 -61.221427 
2.170000 	 -61.639095 
2.175000 	 -62.223830 
2.180000 	 -62.641498 
2.185000 	 -63.142699 
2.190000 	 -63.393300 
2.195000 	 -63.643900 
2.200000 	 -63.810967 
2.205000 	 -63.810967 
2.210000 	 -63.894501 
2.215000 	 -63.978035 
2.220000 	 -63.894501 
2.225000 	 -63.810967 
2.230000 	 -63.810967 
2.235000 	 -63.643900 
2.240000 	 -63.309766 
2.245000 	 -63.059165 
2.250000 	 -62.557964 
2.255000 	 -62.056763 
2.260000 	 -61.555561 
2.265000 	 -61.054360 
2.270000 	 -60.386091 
2.275000 	 -59.801357 
2.280000 	 -59.049555 
2.285000 	 -58.214219 
2.290000 	 -57.295350 
2.295000 	 -56.627081 
2.300000 	 -55.541145 
2.305000 	 -54.455209 
2.310000 	 -53.536340 
2.315000 	 -52.283336 
2.320000 	 -51.280934 
2.325000 	 -49.860863 
2.330000 	 -48.941994 
2.335000 	 -47.605457 
2.340000 	 -45.934786 
2.345000 	 -44.765316 
2.350000 	 -43.178178 
2.355000 	 -41.591041 
2.360000 	 -40.087437 
2.365000 	 -38.500299 
2.370000 	 -36.829628 
2.375000 	 -35.075423 
2.380000 	 -33.571819 
2.385000 	 -31.650547 
2.390000 	 -29.896342 
2.395000 	 -28.142138 
2.400000 	 -26.220866 
2.405000 	 -24.216060 
2.410000 	 -22.211255 
2.415000 	 -20.289983 
2.420000 	 -18.285178 
2.425000 	 -16.196839 
2.430000 	 -14.359101 
2.435000 	 -12.270762 
2.440000 	 -10.098889 
2.445000 	 -8.094084 
2.450000 	 -5.838677 
2.455000 	 -3.583271 
2.460000 	 -1.578466 
2.465000 	 0.342806 
2.470000 	 2.765279 
2.475000 	 4.853618 
2.480000 	 7.025491 
2.485000 	 9.364430 
2.490000 	 11.369236 
2.495000 	 13.541108 
2.500000 	 15.712981 
2.505000 	 17.801320 
2.510000 	 20.056726 
2.515000 	 21.977998 
2.520000 	 24.149870 
2.525000 	 26.238209 
2.530000 	 28.159481 
2.535000 	 30.247820 
2.540000 	 32.169092 
2.545000 	 34.006830 
2.550000 	 35.844568 
2.555000 	 37.849374 
2.560000 	 39.687112 
2.565000 	 41.357783 
2.570000 	 43.195522 
2.575000 	 44.866193 
2.580000 	 46.453330 
2.585000 	 48.040468 
2.590000 	 49.627606 
2.595000 	 51.131210 
2.600000 	 52.467747 
2.605000 	 53.971351 
2.610000 	 55.140821 
2.615000 	 56.477357 
2.620000 	 57.730361 
2.625000 	 58.983364 
2.630000 	 59.902233 
2.635000 	 61.155237 
2.640000 	 62.074106 
2.645000 	 62.909442 
2.650000 	 63.828311 
2.655000 	 64.830713 
2.660000 	 65.415448 
2.665000 	 66.250784 
2.670000 	 66.835519 
2.675000 	 67.336720 
2.680000 	 67.921455 
2.685000 	 68.422656 
2.690000 	 68.840324 
2.695000 	 69.090925 
2.700000 	 69.341526 
2.705000 	 69.675660 
2.710000 	 69.926260 
2.715000 	 70.009794 
2.720000 	 70.093328 
2.725000 	 70.093328 
2.730000 	 70.009794 
2.735000 	 69.842727 
2.740000 	 69.592126 
2.745000 	 69.257992 
2.750000 	 69.007391 
2.755000 	 68.673257 
2.760000 	 68.255589 
2.765000 	 67.670854 
2.770000 	 67.169653 
2.775000 	 66.668452 
2.780000 	 66.167250 
2.785000 	 65.248381 
2.790000 	 64.663646 
2.795000 	 63.661244 
2.800000 	 62.742374 
2.805000 	 61.990572 
2.810000 	 60.988170 
2.815000 	 59.651633 
2.820000 	 58.816297 
2.825000 	 57.646827 
2.830000 	 56.393824 
2.835000 	 55.140821 
2.840000 	 53.971351 
2.845000 	 52.467747 
2.850000 	 51.214743 
2.855000 	 49.711139 
2.860000 	 48.207535 
2.865000 	 46.703931 
2.870000 	 45.116793 
2.875000 	 43.529656 
2.880000 	 41.775451 
2.885000 	 40.188313 
2.890000 	 38.099975 
2.895000 	 36.512837 
2.900000 	 34.758632 
2.905000 	 32.753827 
2.910000 	 30.999622 
2.915000 	 29.161884 
2.920000 	 27.073545 
2.925000 	 25.152273 
2.930000 	 23.231001 
2.935000 	 21.226196 
2.940000 	 19.054323 
2.945000 	 17.049518 
2.950000 	 15.044712 
2.955000 	 13.039907 
2.960000 	 11.035101 
2.965000 	 8.863229 
2.970000 	 6.774890 
2.975000 	 4.686551 
2.980000 	 2.765279 
2.985000 	 0.509873 
2.990000 	 -1.411399 
2.995000 	 -3.332671 
3.000000 	 -5.588077 
3.005000 	 -7.342282 
3.010000 	 -9.347087 
3.015000 	 -11.268359 
3.020000 	 -13.273164 
3.025000 	 -15.277970 
3.030000 	 -17.115708 
3.035000 	 -18.953446 
3.040000 	 -20.707651 
3.045000 	 -22.545389 
3.050000 	 -24.299594 
3.055000 	 -26.137332 
3.060000 	 -27.724470 
3.065000 	 -29.228074 
3.070000 	 -30.815212 
3.075000 	 -32.485883 
3.080000 	 -34.156554 
3.085000 	 -35.660158 
3.090000 	 -36.996695 
3.095000 	 -38.416765 
3.100000 	 -39.753302 
3.105000 	 -41.173373 
3.110000 	 -42.342843 
3.115000 	 -43.428779 
3.120000 	 -44.848850 
3.125000 	 -45.851252 
3.130000 	 -46.937189 
3.135000 	 -47.856058 
3.140000 	 -48.941994 
3.145000 	 -49.777330 
3.150000 	 -50.612665 
3.155000 	 -51.364467 
3.160000 	 -51.949202 
3.165000 	 -52.868071 
3.170000 	 -53.452806 
3.175000 	 -54.037541 
3.180000 	 -54.371675 
3.185000 	 -54.872877 
3.190000 	 -55.290544 
3.195000 	 -55.708212 
3.200000 	 -56.042346 
3.205000 	 -56.292947 
3.210000 	 -56.543548 
3.215000 	 -56.627081 
3.220000 	 -56.627081 
3.225000 	 -56.627081 
3.230000 	 -56.627081 
3.235000 	 -56.543548 
3.240000 	 -56.376481 
3.245000 	 -56.125880 
3.250000 	 -55.791746 
3.255000 	 -55.541145 
3.260000 	 -55.123477 
3.265000 	 -54.705809 
3.270000 	 -54.121075 
3.275000 	 -53.786940 
3.280000 	 -53.202205 
3.285000 	 -52.366870 
3.290000 	 -51.782135 
3.295000 	 -51.113866 
3.300000 	 -50.194997 
3.305000 	 -49.443195 
3.310000 	 -48.607860 
3.315000 	 -47.605457 
3.320000 	 -46.435987 
3.325000 	 -45.600652 
3.330000 	 -44.514715 
3.335000 	 -43.345245 
3.340000 	 -42.092242 
3.345000 	 -40.839239 
3.350000 	 -39.502702 
3.355000 	 -38.249698 
3.360000 	 -36.913161 
3.365000 	 -35.493091 
3.370000 	 -34.156554 
3.375000 	 -32.485883 
3.380000 	 -30.898745 
3.385000 	 -29.311608 
3.390000 	 -27.975071 
3.395000 	 -26.304399 
3.400000 	 -24.550195 
3.405000 	 -22.795990 
3.410000 	 -21.041785 
3.415000 	 -19.454648 
3.420000 	 -17.616909 
3.425000 	 -15.862705 
3.430000 	 -14.024966 
3.435000 	 -12.270762 
3.440000 	 -10.265956 
3.445000 	 -8.428218 
3.450000 	 -6.506946 
3.455000 	 -4.585674 
3.460000 	 -2.747936 
3.465000 	 -0.659597 
3.470000 	 1.178141 
3.475000 	 3.266480 
3.480000 	 5.020685 
3.485000 	 6.941957 
3.490000 	 8.863229 
3.495000 	 10.951568 
3.500000 	 12.789306 
3.505000 	 14.794112 
3.510000 	 16.715383 
3.515000 	 18.469588 
3.520000 	 20.641461 
3.525000 	 22.228598 
3.530000 	 24.066337 
3.535000 	 26.071142 
3.540000 	 27.574746 
3.545000 	 29.412484 
3.550000 	 31.083156 
3.555000 	 32.670293 
3.560000 	 34.508031 
3.565000 	 35.928102 
3.570000 	 37.682307 
3.575000 	 39.185911 
3.580000 	 40.689515 
3.585000 	 42.109585 
3.590000 	 43.529656 
3.595000 	 44.949726 
3.600000 	 46.119196 
3.605000 	 47.539267 
3.610000 	 48.708736 
3.615000 	 49.878206 
3.620000 	 51.047676 
3.625000 	 52.050079 
3.630000 	 53.052482 
3.635000 	 54.138418 
3.640000 	 54.890220 
3.645000 	 55.809089 
3.650000 	 56.560891 
3.655000 	 57.396227 
3.660000 	 58.064495 
3.665000 	 58.816297 
3.670000 	 59.233965 
3.675000 	 59.651633 
3.680000 	 60.236368 
3.685000 	 60.737569 
3.690000 	 61.155237 
3.695000 	 61.489371 
3.700000 	 61.739972 
3.705000 	 61.907039 
3.710000 	 61.990572 
3.715000 	 62.074106 
3.720000 	 61.990572 
3.725000 	 62.074106 
3.730000 	 62.074106 
3.735000 	 61.823505 
3.740000 	 61.739972 
3.745000 	 61.489371 
3.750000 	 61.155237 
3.755000 	 60.737569 
3.760000 	 60.319901 
3.765000 	 59.651633 
3.770000 	 59.233965 
3.775000 	 58.816297 
3.780000 	 58.148029 
3.785000 	 57.479760 
3.790000 	 56.727958 
3.795000 	 56.059690 
3.800000 	 55.057287 
3.805000 	 54.305485 
3.810000 	 53.303082 
3.815000 	 52.300680 
3.820000 	 51.381810 
3.825000 	 50.462941 
3.830000 	 49.126404 
3.835000 	 48.040468 
3.840000 	 46.787465 
3.845000 	 45.450928 
3.850000 	 44.197924 
3.855000 	 43.028454 
3.860000 	 41.524850 
3.865000 	 40.188313 
3.870000 	 38.517642 
3.875000 	 37.014038 
3.880000 	 35.593968 
3.885000 	 34.090364 
3.890000 	 32.419693 
3.895000 	 30.832555 
3.900000 	 29.245417 
3.905000 	 27.491213 
3.910000 	 26.071142 
3.915000 	 24.066337 
3.920000 	 22.395665 
3.925000 	 20.808528 
3.930000 	 18.720189 
3.935000 	 16.882451 
3.940000 	 15.128246 
3.945000 	 13.374041 
3.950000 	 11.536303 
3.955000 	 9.782098 
3.960000 	 7.777293 
3.965000 	 6.023088 
3.970000 	 4.185350 
3.975000 	 2.347611 
3.980000 	 0.426339 
3.985000 	 -1.244332 
3.990000 	 -2.998536 
3.995000 	 -4.919808 
4.000000 	 -6.506946 
4.005000 	 -8.344684 
4.010000 	 -10.098889 
4.015000 	 -11.936627 
4.020000 	 -13.440231 
4.025000 	 -15.277970 
4.030000 	 -16.781574 
4.035000 	 -18.368711 
4.040000 	 -19.955849 
4.045000 	 -21.459453 
4.050000 	 -22.963057 
4.055000 	 -24.466661 
4.060000 	 -26.137332 
4.065000 	 -27.306802 
4.070000 	 -28.726873 
4.075000 	 -30.146943 
4.080000 	 -31.567014 
4.085000 	 -32.569416 
4.090000 	 -33.989487 
4.095000 	 -35.075423 
4.100000 	 -36.161359 
4.105000 	 -37.414363 
4.110000 	 -38.416765 
4.115000 	 -39.335635 
4.120000 	 -40.505104 
4.125000 	 -41.173373 
4.130000 	 -42.175776 
4.135000 	 -43.011111 
4.140000 	 -43.679380 
4.145000 	 -44.598249 
4.150000 	 -45.099450 
4.155000 	 -45.767719 
4.160000 	 -46.185386 
4.165000 	 -46.853655 
4.170000 	 -47.354856 
4.175000 	 -47.688991 
4.180000 	 -48.023125 
4.185000 	 -48.440793 
4.190000 	 -48.691393 
4.195000 	 -48.941994 
4.200000 	 -49.109061 
4.205000 	 -49.109061 
4.210000 	 -49.109061 
4.215000 	 -49.109061 
4.220000 	 -49.109061 
4.225000 	 -49.025527 
4.230000 	 -48.858460 
4.235000 	 -48.691393 
4.240000 	 -48.357259 
4.245000 	 -47.939591 
4.250000 	 -47.688991 
4.255000 	 -47.354856 
4.260000 	 -46.853655 
4.265000 	 -46.185386 
4.270000 	 -45.767719 
4.275000 	 -45.099450 
4.280000 	 -44.681782 
4.285000 	 -43.679380 
4.290000 	 -43.094645 
4.295000 	 -42.342843 
4.300000 	 -41.340440 
4.305000 	 -40.505104 
4.310000 	 -39.586235 
4.315000 	 -38.667366 
4.320000 	 -37.664963 
4.325000 	 -36.495494 
4.330000 	 -35.576624 
4.335000 	 -34.407155 
4.340000 	 -33.070618 
4.345000 	 -31.901148 
4.350000 	 -30.648145 
4.355000 	 -29.311608 
4.360000 	 -28.309205 
4.365000 	 -26.805601 
4.370000 	 -25.385530 
4.375000 	 -24.048993 
4.380000 	 -22.461856 
4.385000 	 -21.041785 
4.390000 	 -19.621715 
4.395000 	 -17.951044 
4.400000 	 -16.447439 
4.405000 	 -15.027369 
4.410000 	 -13.273164 
4.415000 	 -11.853094 
4.420000 	 -10.098889 
4.425000 	 -8.428218 
4.430000 	 -6.757547 
4.435000 	 -5.253943 
4.440000 	 -3.332671 
4.445000 	 -1.745533 
4.450000 	 -0.074862 
4.455000 	 1.679343 
4.460000 	 3.517081 
4.465000 	 5.020685 
4.470000 	 6.774890 
4.475000 	 8.445561 
4.480000 	 10.116232 
4.485000 	 11.870437 
4.490000 	 13.624642 
4.495000 	 15.211779 
4.500000 	 16.882451 
4.505000 	 18.469588 
4.510000 	 20.474394 
4.515000 	 21.643863 
4.520000 	 23.398068 
4.525000 	 24.901672 
4.530000 	 26.405276 
4.535000 	 27.825347 
4.540000 	 29.496018 
4.545000 	 30.832555 
4.550000 	 32.336159 
4.555000 	 33.756229 
4.560000 	 35.009233 
4.565000 	 36.178703 
4.570000 	 37.682307 
4.575000 	 38.768243 
4.580000 	 40.104780 
4.585000 	 41.107183 
4.590000 	 42.360186 
4.595000 	 43.362589 
4.600000 	 44.281458 
4.605000 	 45.283861 
4.610000 	 46.119196 
4.615000 	 47.205132 
4.620000 	 48.040468 
4.625000 	 48.708736 
4.630000 	 49.460539 
4.635000 	 50.295874 
4.640000 	 50.880609 
4.645000 	 51.381810 
4.650000 	 51.883012 
4.655000 	 52.300680 
4.660000 	 52.885414 
4.665000 	 53.136015 
4.670000 	 53.720750 
4.675000 	 53.971351 
4.680000 	 54.138418 
4.685000 	 54.221951 
4.690000 	 54.389019 
4.695000 	 54.472552 
4.700000 	 54.472552 
4.705000 	 54.472552 
4.710000 	 54.389019 
4.715000 	 54.221951 
4.720000 	 54.138418 
4.725000 	 53.971351 
4.730000 	 53.720750 
4.735000 	 53.136015 
4.740000 	 52.885414 
4.745000 	 52.384213 
4.750000 	 51.966545 
4.755000 	 51.465344 
4.760000 	 50.964143 
4.765000 	 50.379408 
4.770000 	 49.627606 
4.775000 	 48.875804 
4.780000 	 48.207535 
4.785000 	 47.455733 
4.790000 	 46.536864 
4.795000 	 45.534461 
4.800000 	 44.615592 
4.805000 	 43.780257 
4.810000 	 42.861387 
4.815000 	 41.608384 
4.820000 	 40.605981 
4.825000 	 39.603579 
4.830000 	 38.099975 
4.835000 	 37.014038 
4.840000 	 35.844568 
4.845000 	 34.591565 
4.850000 	 33.255028 
4.855000 	 32.085558 
4.860000 	 30.665488 
4.865000 	 29.328951 
4.870000 	 27.658280 
4.875000 	 26.321743 
4.880000 	 24.901672 
4.885000 	 23.398068 
4.890000 	 21.810931 
4.895000 	 20.557927 
4.900000 	 18.720189 
4.905000 	 17.300118 
4.910000 	 15.712981 
4.915000 	 14.292910 
4.920000 	 12.622239 
4.925000 	 11.035101 
4.930000 	 9.447964 
4.935000 	 7.610225 
4.940000 	 6.190155 
4.945000 	 4.519484 
4.950000 	 3.015880 
4.955000 	 1.261675 
4.960000 	 -0.158395 
4.965000 	 -1.829067 
4.970000 	 -3.332671 
4.975000 	 -5.003342 
4.980000 	 -6.423412 
4.985000 	 -8.094084 
4.990000 	 -9.347087 
4.995000 	 -10.850691 
5.000000 	 -12.521362 
5.005000 	 -13.941433 
5.010000 	 -15.277970 
5.015000 	 -16.614507 
5.020000 	 -18.034577 
5.025000 	 -19.454648 
5.030000 	 -20.707651 
5.035000 	 -21.793587 
5.040000 	 -23.213658 
5.045000 	 -24.383128 
5.050000 	 -25.636131 
5.055000 	 -26.805601 
5.060000 	 -27.975071 
5.065000 	 -28.810406 
5.070000 	 -29.979876 
5.075000 	 -30.898745 
5.080000 	 -31.901148 
5.085000 	 -32.736483 
5.090000 	 -33.738886 
5.095000 	 -34.657755 
5.100000 	 -35.409557 
5.105000 	 -36.077826 
5.110000 	 -36.829628 
5.115000 	 -37.581430 
5.120000 	 -38.166165 
5.125000 	 -38.667366 
5.130000 	 -39.252101 
5.135000 	 -39.669769 
5.140000 	 -40.170970 
5.145000 	 -40.588638 
5.150000 	 -41.006306 
5.155000 	 -41.173373 
5.160000 	 -41.340440 
5.165000 	 -41.591041 
5.170000 	 -41.841641 
5.175000 	 -42.008709 
5.180000 	 -42.008709 
5.185000 	 -42.092242 
5.190000 	 -42.008709 
5.195000 	 -41.925175 
5.200000 	 -41.758108 
5.205000 	 -41.507507 
5.210000 	 -41.256906 
5.215000 	 -41.089839 
5.220000 	 -40.755705 
5.225000 	 -40.505104 
5.230000 	 -40.087437 
5.235000 	 -39.586235 
5.240000 	 -39.168568 
5.245000 	 -38.583833 
5.250000 	 -38.082631 
5.255000 	 -37.581430 
5.260000 	 -36.829628 
5.265000 	 -36.077826 
5.270000 	 -35.409557 
5.275000 	 -34.657755 
5.280000 	 -33.822420 
5.285000 	 -32.820017 
5.290000 	 -31.984681 
5.295000 	 -31.065812 
5.300000 	 -30.230477 
5.305000 	 -29.061007 
5.310000 	 -28.309205 
5.315000 	 -26.972668 
5.320000 	 -26.053799 
5.325000 	 -24.800795 
5.330000 	 -23.881926 
5.335000 	 -22.545389 
5.340000 	 -21.292386 
5.345000 	 -20.122916 
5.350000 	 -18.869913 
5.355000 	 -17.533376 
5.360000 	 -16.196839 
5.365000 	 -15.027369 
5.370000 	 -13.607298 
5.375000 	 -12.270762 
5.380000 	 -10.767157 
5.385000 	 -9.347087 
5.390000 	 -8.177617 
5.395000 	 -6.506946 
5.400000 	 -5.253943 
5.405000 	 -3.583271 
5.410000 	 -2.246734 
5.415000 	 -0.576063 
5.420000 	 0.676940 
5.425000 	 2.264078 
5.430000 	 3.767682 
5.435000 	 5.187752 
5.440000 	 6.774890 
5.445000 	 8.111427 
5.450000 	 9.782098 
5.455000 	 11.202169 
5.460000 	 12.705773 
5.465000 	 14.042310 
5.470000 	 15.378846 
5.475000 	 16.882451 
5.480000 	 18.302521 
5.485000 	 19.639058 
5.490000 	 21.226196 
5.495000 	 22.395665 
5.500000 	 23.815736 
5.505000 	 24.901672 
5.510000 	 26.321743 
5.515000 	 27.491213 
5.520000 	 28.827749 
5.525000 	 29.913686 
5.530000 	 31.083156 
5.535000 	 32.252625 
5.540000 	 33.255028 
5.545000 	 34.424498 
5.550000 	 35.259834 
5.555000 	 36.345770 
5.560000 	 37.348172 
5.565000 	 38.016441 
5.570000 	 39.102377 
5.575000 	 40.021246 
5.580000 	 40.689515 
5.585000 	 41.441317 
5.590000 	 42.193119 
5.595000 	 42.861387 
5.600000 	 43.446122 
5.605000 	 44.030857 
5.610000 	 44.364991 
5.615000 	 45.033260 
5.620000 	 45.367394 
5.625000 	 45.701528 
5.630000 	 46.119196 
5.635000 	 46.453330 
5.640000 	 46.787465 
5.645000 	 47.038065 
5.650000 	 47.205132 
5.655000 	 47.372200 
5.660000 	 47.372200 
5.665000 	 47.372200 
5.670000 	 47.372200 
5.675000 	 47.288666 
5.680000 	 47.205132 
5.685000 	 47.038065 
5.690000 	 46.787465 
5.695000 	 46.536864 
5.700000 	 46.119196 
5.705000 	 45.785062 
5.710000 	 45.450928 
5.715000 	 45.116793 
5.720000 	 44.532059 
5.725000 	 44.197924 
5.730000 	 43.613189 
5.735000 	 43.111988 
5.740000 	 42.443720 
5.745000 	 41.775451 
5.750000 	 40.940116 
5.755000 	 40.355381 
5.760000 	 39.687112 
5.765000 	 38.601176 
5.770000 	 37.849374 
5.775000 	 36.930505 
5.780000 	 35.928102 
5.785000 	 35.092766 
5.790000 	 34.173897 
5.795000 	 33.004427 
5.800000 	 32.085558 
5.805000 	 30.999622 
5.810000 	 29.830152 
5.815000 	 28.744216 
5.820000 	 27.574746 
5.825000 	 26.321743 
5.830000 	 25.152273 
5.835000 	 23.982803 
5.840000 	 22.813333 
5.845000 	 21.393263 
5.850000 	 20.390860 
5.855000 	 18.720189 
5.860000 	 17.550719 
5.865000 	 16.130649 
5.870000 	 14.794112 
5.875000 	 13.457575 
5.880000 	 12.037504 
5.885000 	 10.784501 
5.890000 	 9.531497 
5.895000 	 7.860826 
5.900000 	 6.607823 
5.905000 	 5.187752 
5.910000 	 3.851215 
5.915000 	 2.431145 
5.920000 	 1.011074 
5.925000 	 -0.241929 
5.930000 	 -1.662000 
5.935000 	 -3.082070 
5.940000 	 -4.335073 
5.945000 	 -5.755144 
5.950000 	 -6.841080 
5.955000 	 -8.428218 
5.960000 	 -9.430621 
5.965000 	 -10.767157 
5.970000 	 -12.103694 
5.975000 	 -13.189631 
5.980000 	 -14.442634 
5.985000 	 -15.612104 
5.990000 	 -16.698040 
5.995000 	 -17.783976 
6.000000 	 -18.953446 
6.005000 	 -19.955849 
6.010000 	 -20.958252 
6.015000 	 -21.877121 
6.020000 	 -22.879524 
6.025000 	 -23.965460 
6.030000 	 -24.717262 
6.035000 	 -25.719665 
6.040000 	 -26.722067 
6.045000 	 -27.139735 
6.050000 	 -28.309205 
6.055000 	 -28.726873 
6.060000 	 -29.395141 
6.065000 	 -30.230477 
6.070000 	 -30.648145 
6.075000 	 -31.567014 
6.080000 	 -31.901148 
6.085000 	 -32.402349 
6.090000 	 -32.736483 
6.095000 	 -33.237685 
6.100000 	 -33.738886 
6.105000 	 -34.156554 
6.110000 	 -34.323621 
6.115000 	 -34.574222 
6.120000 	 -34.741289 
6.125000 	 -34.824822 
6.130000 	 -34.991890 
6.135000 	 -35.158957 
6.140000 	 -35.158957 
6.145000 	 -35.242490 
6.150000 	 -35.242490 
6.155000 	 -35.075423 
6.160000 	 -34.908356 
6.165000 	 -34.824822 
6.170000 	 -34.657755 
6.175000 	 -34.407155 
6.180000 	 -34.240088 
6.185000 	 -33.905953 
6.190000 	 -33.571819 
6.195000 	 -32.987084 
6.200000 	 -32.569416 
6.205000 	 -32.151749 
6.210000 	 -31.734081 
6.215000 	 -31.232879 
6.220000 	 -30.564611 
6.225000 	 -29.979876 
6.230000 	 -29.228074 
6.235000 	 -28.643339 
6.240000 	 -28.142138 
6.245000 	 -27.139735 
6.250000 	 -26.555000 
6.255000 	 -25.719665 
6.260000 	 -24.717262 
6.265000 	 -24.048993 
6.270000 	 -22.963057 
6.275000 	 -22.044188 
6.280000 	 -21.125319 
6.285000 	 -20.206450 
6.290000 	 -19.204047 
6.295000 	 -18.118111 
6.300000 	 -17.115708 
6.305000 	 -16.029772 
6.310000 	 -15.027369 
6.315000 	 -13.941433 
6.320000 	 -12.771963 
6.325000 	 -11.686027 
6.330000 	 -10.349490 
6.335000 	 -9.180020 
6.340000 	 -8.177617 
6.345000 	 -6.757547 
6.350000 	 -5.671610 
6.355000 	 -4.335073 
6.360000 	 -3.082070 
6.365000 	 -1.912600 
6.370000 	 -0.408996 
6.375000 	 0.509873 
6.380000 	 1.929943 
6.385000 	 3.350014 
6.390000 	 4.435950 
6.395000 	 5.688954 
6.400000 	 6.941957 
6.405000 	 8.194960 
6.410000 	 9.698564 
6.415000 	 10.784501 
6.420000 	 11.953971 
6.425000 	 13.290508 
6.430000 	 14.543511 
6.435000 	 15.629447 
6.440000 	 16.882451 
6.445000 	 17.968387 
6.450000 	 19.054323 
6.455000 	 20.557927 
6.460000 	 21.393263 
6.465000 	 22.562733 
6.470000 	 23.565135 
6.475000 	 24.651072 
6.480000 	 25.904075 
6.485000 	 26.655877 
6.490000 	 27.574746 
6.495000 	 28.577149 
6.500000 	 29.496018 
6.505000 	 30.331354 
6.510000 	 31.250223 
6.515000 	 32.002025 
6.520000 	 32.670293 
6.525000 	 33.589162 
6.530000 	 34.257431 
6.535000 	 34.925699 
6.540000 	 35.510434 
6.545000 	 36.011636 
6.550000 	 36.679904 
6.555000 	 37.181105 
6.560000 	 37.765840 
6.565000 	 38.016441 
6.570000 	 38.434109 
6.575000 	 39.018844 
6.580000 	 39.436511 
6.585000 	 39.687112 
6.590000 	 39.937713 
6.595000 	 40.188313 
6.600000 	 40.271847 
6.605000 	 40.438914 
6.610000 	 40.522448 
6.615000 	 40.605981 
6.620000 	 40.605981 
6.625000 	 40.605981 
6.630000 	 40.522448 
6.635000 	 40.438914 
6.640000 	 40.355381 
6.645000 	 40.188313 
6.650000 	 39.854179 
6.655000 	 39.687112 
6.660000 	 39.352978 
6.665000 	 38.935310 
6.670000 	 38.517642 
6.675000 	 38.016441 
6.680000 	 37.765840 
6.685000 	 37.264639 
6.690000 	 36.763438 
6.695000 	 36.178703 
6.700000 	 35.593968 
6.705000 	 35.092766 
6.710000 	 34.508031 
6.715000 	 33.756229 
6.720000 	 32.920894 
6.725000 	 32.336159 
6.730000 	 31.584357 
6.735000 	 30.749021 
6.740000 	 29.830152 
6.745000 	 29.161884 
6.750000 	 28.159481 
6.755000 	 27.240612 
6.760000 	 26.321743 
6.765000 	 25.402874 
6.770000 	 24.400471 
6.775000 	 23.481602 
6.780000 	 22.479199 
6.785000 	 21.393263 
6.790000 	 20.557927 
6.795000 	 19.137857 
6.800000 	 18.135454 
6.805000 	 17.049518 
6.810000 	 15.963581 
6.815000 	 14.794112 
6.820000 	 13.708175 
6.825000 	 12.538705 
6.830000 	 11.369236 
6.835000 	 10.199766 
6.840000 	 9.113830 
6.845000 	 7.777293 
6.850000 	 6.774890 
6.855000 	 5.605420 
6.860000 	 4.352417 
6.865000 	 3.350014 
6.870000 	 2.097011 
6.875000 	 0.844007 
6.880000 	 -0.158395 
6.885000 	 -1.494932 
6.890000 	 -2.580869 
6.895000 	 -3.583271 
6.900000 	 -4.836275 
6.905000 	 -5.838677 
6.910000 	 -6.924614 
6.915000 	 -8.177617 
6.920000 	 -9.096486 
6.925000 	 -10.098889 
6.930000 	 -11.017758 
6.935000 	 -12.187228 
6.940000 	 -13.106097 
6.945000 	 -14.108500 
6.950000 	 -15.110903 
6.955000 	 -15.946238 
6.960000 	 -16.781574 
6.965000 	 -17.616909 
6.970000 	 -18.452245 
6.975000 	 -19.371114 
6.980000 	 -20.039383 
6.985000 	 -20.791185 
6.990000 	 -21.375919 
6.995000 	 -22.127721 
7.000000 	 -22.795990 
7.005000 	 -23.631326 
7.010000 	 -24.132527 
7.015000 	 -24.550195 
7.020000 	 -25.051396 
7.025000 	 -25.719665 
7.030000 	 -26.220866 
7.035000 	 -26.722067 
7.040000 	 -26.889134 
7.045000 	 -27.139735 
7.050000 	 -27.640936 
7.055000 	 -28.058604 
7.060000 	 -28.309205 
7.065000 	 -28.476272 
7.070000 	 -28.559806 
7.075000 	 -28.643339 
7.080000 	 -28.726873 
7.085000 	 -28.726873 
7.090000 	 -28.810406 
7.095000 	 -28.726873 
7.100000 	 -28.726873 
7.105000 	 -28.726873 
7.110000 	 -28.643339 
7.115000 	 -28.559806 
7.120000 	 -28.476272 
7.125000 	 -28.392738 
7.130000 	 -28.142138 
7.135000 	 -27.724470 
7.140000 	 -27.306802 
7.145000 	 -26.972668 
7.150000 	 -26.805601 
7.155000 	 -26.471467 
7.160000 	 -25.970265 
7.165000 	 -25.469064 
7.170000 	 -24.884329 
7.175000 	 -24.383128 
7.180000 	 -23.881926 
7.185000 	 -23.380725 
7.190000 	 -22.628923 
7.195000 	 -21.960654 
7.200000 	 -21.292386 
7.205000 	 -20.707651 
7.210000 	 -19.955849 
7.215000 	 -19.371114 
7.220000 	 -18.452245 
7.225000 	 -17.700443 
7.230000 	 -16.865107 
7.235000 	 -16.029772 
7.240000 	 -15.194436 
7.245000 	 -14.359101 
7.250000 	 -13.440231 
7.255000 	 -12.604896 
7.260000 	 -11.686027 
7.265000 	 -10.683624 
7.270000 	 -9.681221 
7.275000 	 -8.678819 
7.280000 	 -7.843483 
7.285000 	 -6.674013 
7.290000 	 -5.838677 
7.295000 	 -4.752741 
7.300000 	 -3.583271 
7.305000 	 -2.664402 
7.310000 	 -1.578466 
7.315000 	 -0.408996 
7.320000 	 0.342806 
7.325000 	 1.595809 
7.330000 	 2.765279 
7.335000 	 3.767682 
7.340000 	 4.770084 
7.345000 	 5.688954 
7.350000 	 6.858423 
7.355000 	 7.860826 
7.360000 	 9.030296 
7.365000 	 10.032699 
7.370000 	 11.118635 
7.375000 	 12.121038 
7.380000 	 13.206974 
7.385000 	 14.209377 
7.390000 	 15.044712 
7.395000 	 16.047115 
7.400000 	 16.965984 
7.405000 	 17.968387 
7.410000 	 18.887256 
7.415000 	 19.806125 
7.420000 	 20.975595 
7.425000 	 21.476796 
7.430000 	 22.479199 
7.435000 	 23.314535 
7.440000 	 24.066337 
7.445000 	 24.734605 
7.450000 	 25.737008 
7.455000 	 26.321743 
7.460000 	 26.990011 
7.465000 	 27.574746 
7.470000 	 28.243015 
7.475000 	 28.911283 
7.480000 	 29.496018 
7.485000 	 29.997219 
7.490000 	 30.665488 
7.495000 	 30.999622 
7.500000 	 31.500823 
7.505000 	 32.002025 
7.510000 	 32.336159 
7.515000 	 32.586760 
7.520000 	 32.837360 
7.525000 	 33.255028 
7.530000 	 33.505629 
7.535000 	 33.756229 
7.540000 	 33.923297 
7.545000 	 34.090364 
7.550000 	 34.173897 
7.555000 	 34.257431 
7.560000 	 34.340964 
7.565000 	 34.340964 
7.570000 	 34.257431 
7.575000 	 34.173897 
7.580000 	 34.090364 
7.585000 	 34.006830 
7.590000 	 33.839763 
7.595000 	 33.672696 
7.600000 	 33.505629 
7.605000 	 33.171495 
7.610000 	 32.837360 
7.615000 	 32.503226 
7.620000 	 32.336159 
7.625000 	 32.002025 
7.630000 	 31.667890 
7.635000 	 31.166689 
7.640000 	 30.749021 
7.645000 	 30.247820 
7.650000 	 29.663085 
7.655000 	 29.245417 
7.660000 	 28.577149 
7.665000 	 27.908880 
7.670000 	 27.324145 
7.675000 	 26.739410 
7.680000 	 26.154676 
7.685000 	 25.319340 
7.690000 	 24.651072 
7.695000 	 23.982803 
7.700000 	 23.231001 
7.705000 	 22.395665 
7.710000 	 21.476796 
7.715000 	 20.975595 
7.720000 	 20.056726 
7.725000 	 18.970790 
7.730000 	 18.218987 
7.735000 	 17.383652 
7.740000 	 16.464783 
7.745000 	 15.462380 
7.750000 	 14.710578 
7.755000 	 13.791709 
7.760000 	 12.789306 
7.765000 	 11.786903 
7.770000 	 10.951568 
7.775000 	 9.949165 
7.780000 	 8.863229 
7.785000 	 7.944360 
7.790000 	 7.025491 
7.795000 	 6.023088 
7.800000 	 5.020685 
7.805000 	 4.101816 
7.810000 	 3.350014 
7.815000 	 2.180544 
7.820000 	 1.178141 
7.825000 	 0.175739 
7.830000 	 -0.492530 
7.835000 	 -1.578466 
7.840000 	 -2.664402 
7.845000 	 -3.416204 
7.850000 	 -4.335073 
7.855000 	 -5.504543 
7.860000 	 -6.089278 
7.865000 	 -6.924614 
7.870000 	 -8.010550 
7.875000 	 -8.678819 
7.880000 	 -9.430621 
7.885000 	 -10.265956 
7.890000 	 -11.017758 
7.895000 	 -12.020161 
7.900000 	 -12.688429 
7.905000 	 -13.356698 
7.910000 	 -14.024966 
7.915000 	 -14.776768 
7.920000 	 -15.445037 
7.925000 	 -16.029772 
7.930000 	 -16.614507 
7.935000 	 -17.282775 
7.940000 	 -17.783976 
7.945000 	 -18.285178 
7.950000 	 -18.869913 
7.955000 	 -19.371114 
7.960000 	 -19.872315 
7.965000 	 -20.122916 
7.970000 	 -20.624117 
7.975000 	 -20.874718 
7.980000 	 -21.292386 
7.985000 	 -21.459453 
7.990000 	 -21.793587 
7.995000 	 -22.044188 
8.000000 	 -22.294789 
8.005000 	 -22.461856 
8.010000 	 -22.712456 
8.015000 	 -22.795990 
8.020000 	 -22.879524 
8.025000 	 -22.963057 
8.030000 	 -22.963057 
8.035000 	 -22.963057 
8.040000 	 -22.963057 
8.045000 	 -22.963057 
8.050000 	 -22.879524 
8.055000 	 -22.712456 
8.060000 	 -22.628923 
8.065000 	 -22.461856 
8.070000 	 -22.211255 
8.075000 	 -21.960654 
8.080000 	 -21.793587 
8.085000 	 -21.459453 
8.090000 	 -21.292386 
8.095000 	 -20.958252 
8.100000 	 -20.624117 
8.105000 	 -20.206450 
8.110000 	 -19.872315 
8.115000 	 -19.538181 
8.120000 	 -18.953446 
8.125000 	 -18.452245 
8.130000 	 -18.034577 
8.135000 	 -17.366309 
8.140000 	 -16.948641 
8.145000 	 -16.280372 
8.150000 	 -15.779171 
8.155000 	 -15.194436 
8.160000 	 -14.526168 
8.165000 	 -13.941433 
8.170000 	 -13.189631 
8.175000 	 -12.604896 
8.180000 	 -12.020161 
8.185000 	 -11.017758 
8.190000 	 -10.349490 
8.195000 	 -9.681221 
8.200000 	 -8.762352 
8.205000 	 -8.261151 
8.210000 	 -7.258748 
8.215000 	 -6.423412 
8.220000 	 -5.838677 
8.225000 	 -5.003342 
8.230000 	 -4.000939 
8.235000 	 -3.249137 
8.240000 	 -2.497335 
8.245000 	 -1.578466 
8.250000 	 -0.492530 
8.255000 	 0.092205 
8.260000 	 1.011074 
8.265000 	 1.929943 
8.270000 	 2.848813 
8.275000 	 3.767682 
8.280000 	 4.519484 
8.285000 	 5.438353 
8.290000 	 6.357222 
8.295000 	 7.025491 
8.300000 	 7.860826 
8.305000 	 8.779695 
8.310000 	 9.782098 
8.315000 	 10.533900 
8.320000 	 11.285702 
8.325000 	 12.121038 
8.330000 	 12.956373 
8.335000 	 13.791709 
8.340000 	 14.627044 
8.345000 	 15.211779 
8.350000 	 16.047115 
8.355000 	 16.798917 
8.360000 	 17.550719 
8.365000 	 18.135454 
8.370000 	 18.803722 
8.375000 	 19.388457 
8.380000 	 20.390860 
8.385000 	 21.059128 
8.390000 	 21.393263 
8.395000 	 21.894464 
8.400000 	 22.729800 
8.405000 	 23.231001 
8.410000 	 23.648669 
8.415000 	 24.066337 
8.420000 	 24.567538 
8.425000 	 24.901672 
8.430000 	 25.402874 
8.435000 	 26.071142 
8.440000 	 26.238209 
8.445000 	 26.488810 
8.450000 	 26.906478 
8.455000 	 27.073545 
8.460000 	 27.324145 
8.465000 	 27.574746 
8.470000 	 27.741813 
8.475000 	 27.908880 
8.480000 	 28.159481 
8.485000 	 28.243015 
8.490000 	 28.326548 
8.495000 	 28.410082 
8.500000 	 28.410082 
8.505000 	 28.493615 
8.510000 	 28.410082 
8.515000 	 28.326548 
8.520000 	 28.243015 
8.525000 	 28.159481 
8.530000 	 27.908880 
8.535000 	 27.741813 
8.540000 	 27.658280 
8.545000 	 27.407679 
8.550000 	 27.240612 
8.555000 	 27.073545 
8.560000 	 26.655877 
8.565000 	 26.321743 
8.570000 	 26.154676 
8.575000 	 25.987608 
8.580000 	 25.319340 
8.585000 	 24.818139 
8.590000 	 24.484004 
8.595000 	 23.982803 
8.600000 	 23.565135 
8.605000 	 23.147467 
8.610000 	 22.729800 
8.615000 	 21.977998 
8.620000 	 21.476796 
8.625000 	 21.142662 
8.630000 	 20.557927 
8.635000 	 19.722592 
8.640000 	 19.054323 
8.645000 	 18.469588 
8.650000 	 17.801320 
8.655000 	 17.133051 
8.660000 	 16.464783 
8.665000 	 15.796514 
8.670000 	 15.044712 
8.675000 	 14.459977 
8.680000 	 13.708175 
8.685000 	 12.956373 
8.690000 	 12.288105 
8.695000 	 11.369236 
8.700000 	 10.784501 
8.705000 	 9.949165 
8.710000 	 9.197363 
8.715000 	 8.278494 
8.720000 	 7.526692 
8.725000 	 6.858423 
8.730000 	 6.023088 
8.735000 	 5.271286 
8.740000 	 4.519484 
8.745000 	 3.767682 
8.750000 	 3.015880 
8.755000 	 2.264078 
8.760000 	 1.428742 
8.765000 	 0.509873 
8.770000 	 -0.074862 
8.775000 	 -0.743130 
8.780000 	 -1.662000 
8.785000 	 -2.330268 
8.790000 	 -3.082070 
8.795000 	 -3.583271 
8.800000 	 -4.418607 
8.805000 	 -5.253943 
8.810000 	 -5.838677 
8.815000 	 -6.423412 
8.820000 	 -7.008147 
8.825000 	 -7.843483 
8.830000 	 -8.428218 
8.835000 	 -8.929419 
8.840000 	 -9.430621 
8.845000 	 -10.098889 
8.850000 	 -10.683624 
8.855000 	 -11.184825 
8.860000 	 -11.936627 
8.865000 	 -12.354295 
8.870000 	 -12.771963 
8.875000 	 -13.106097 
8.880000 	 -13.607298 
8.885000 	 -14.024966 
8.890000 	 -14.359101 
8.895000 	 -14.776768 
8.900000 	 -15.194436 
8.905000 	 -15.445037 
8.910000 	 -15.779171 
8.915000 	 -16.029772 
8.920000 	 -16.196839 
8.925000 	 -16.447439 
8.930000 	 -16.698040 
8.935000 	 -16.948641 
8.940000 	 -17.032174 
8.945000 	 -17.199242 
8.950000 	 -17.282775 
8.955000 	 -17.366309 
8.960000 	 -17.366309 
8.965000 	 -17.449842 
8.970000 	 -17.366309 
8.975000 	 -17.366309 
8.980000 	 -17.449842 
8.985000 	 -17.282775 
8.990000 	 -17.282775 
8.995000 	 -17.199242 
9.000000 	 -17.032174 
9.005000 	 -16.948641 
9.010000 	 -16.614507 
9.015000 	 -16.447439 
9.020000 	 -16.196839 
9.025000 	 -16.029772 
9.030000 	 -15.862705 
9.035000 	 -15.528570 
9.040000 	 -15.194436 
9.045000 	 -15.027369 
9.050000 	 -14.526168 
9.055000 	 -14.275567 
9.060000 	 -13.941433 
9.065000 	 -13.440231 
9.070000 	 -13.022564 
9.075000 	 -12.688429 
9.080000 	 -12.270762 
9.085000 	 -11.853094 
9.090000 	 -11.101292 
9.095000 	 -10.683624 
9.100000 	 -10.182423 
9.105000 	 -9.681221 
9.110000 	 -9.096486 
9.115000 	 -8.595285 
9.120000 	 -8.094084 
9.125000 	 -7.425815 
9.130000 	 -6.757547 
9.135000 	 -6.256345 
9.140000 	 -5.755144 
9.145000 	 -5.170409 
9.150000 	 -4.418607 
9.155000 	 -3.583271 
9.160000 	 -3.165604 
9.165000 	 -2.580869 
9.170000 	 -1.745533 
9.175000 	 -1.160798 
9.180000 	 -0.325463 
9.185000 	 0.092205 
9.190000 	 0.844007 
9.195000 	 1.512276 
9.200000 	 2.264078 
9.205000 	 3.015880 
9.210000 	 3.684148 
9.215000 	 4.268883 
9.220000 	 4.937152 
9.225000 	 5.688954 
9.230000 	 6.440756 
9.235000 	 6.941957 
9.240000 	 7.610225 
9.245000 	 8.278494 
9.250000 	 8.863229 
9.255000 	 9.782098 
9.260000 	 10.199766 
9.265000 	 10.951568 
9.270000 	 11.369236 
9.275000 	 12.121038 
9.280000 	 12.705773 
9.285000 	 13.290508 
9.290000 	 13.875242 
9.295000 	 14.459977 
9.300000 	 14.877645 
9.305000 	 15.378846 
9.310000 	 15.963581 
9.315000 	 16.464783 
9.320000 	 16.965984 
9.325000 	 17.550719 
9.330000 	 17.884853 
9.335000 	 18.302521 
9.340000 	 18.720189 
9.345000 	 19.054323 
9.350000 	 19.471991 
9.355000 	 20.056726 
9.360000 	 20.474394 
9.365000 	 20.808528 
9.370000 	 21.059128 
9.375000 	 21.226196 
9.380000 	 21.309729 
9.385000 	 21.560330 
9.390000 	 21.727397 
9.395000 	 21.977998 
9.400000 	 22.145065 
9.405000 	 22.395665 
9.410000 	 22.646266 
9.415000 	 22.729800 
9.420000 	 22.813333 
9.425000 	 22.813333 
9.430000 	 22.896867 
9.435000 	 22.896867 
9.440000 	 22.980400 
9.445000 	 22.813333 
9.450000 	 22.813333 
9.455000 	 22.813333 
9.460000 	 22.729800 
9.465000 	 22.479199 
9.470000 	 22.312132 
9.475000 	 22.061531 
9.480000 	 21.894464 
9.485000 	 21.643863 
9.490000 	 21.476796 
9.495000 	 21.309729 
9.500000 	 21.226196 
9.505000 	 21.059128 
9.510000 	 20.808528 
9.515000 	 20.474394 
9.520000 	 20.056726 
9.525000 	 19.555524 
9.530000 	 19.137857 
9.535000 	 18.803722 
9.540000 	 18.469588 
9.545000 	 18.135454 
9.550000 	 17.717786 
9.555000 	 17.383652 
9.560000 	 16.882451 
9.565000 	 16.381249 
9.570000 	 15.963581 
9.575000 	 15.378846 
9.580000 	 14.877645 
9.585000 	 14.543511 
9.590000 	 13.958776 
9.595000 	 13.457575 
9.600000 	 12.956373 
9.605000 	 12.371638 
9.610000 	 11.786903 
9.615000 	 11.202169 
9.620000 	 10.784501 
9.625000 	 10.032699 
9.630000 	 9.698564 
9.635000 	 8.863229 
9.640000 	 8.362028 
9.645000 	 7.693759 
9.650000 	 7.109024 
9.655000 	 6.691356 
9.660000 	 6.023088 
9.665000 	 5.438353 
9.670000 	 4.770084 
9.675000 	 4.185350 
9.680000 	 3.767682 
9.685000 	 3.266480 
9.690000 	 2.514678 
9.695000 	 1.929943 
9.700000 	 1.261675 
9.705000 	 0.676940 
9.710000 	 0.092205 
9.715000 	 -0.325463 
9.720000 	 -0.826664 
9.725000 	 -1.494932 
9.730000 	 -1.996134 
9.735000 	 -2.580869 
9.740000 	 -3.082070 
9.745000 	 -3.499738 
9.750000 	 -4.084473 
9.755000 	 -4.585674 
9.760000 	 -5.086875 
9.765000 	 -5.671610 
9.770000 	 -5.838677 
9.775000 	 -6.339879 
9.780000 	 -6.757547 
9.785000 	 -7.091681 
9.790000 	 -7.759949 
9.795000 	 -8.094084 
9.800000 	 -8.511751 
9.805000 	 -8.678819 
9.810000 	 -9.012953 
9.815000 	 -9.347087 
9.820000 	 -9.681221 
9.825000 	 -10.015355 
9.830000 	 -10.182423 
9.835000 	 -10.433023 
9.840000 	 -10.683624 
9.845000 	 -10.850691 
9.850000 	 -11.017758 
9.855000 	 -11.268359 
9.860000 	 -11.518960 
9.865000 	 -11.769560 
9.870000 	 -11.936627 
9.875000 	 -12.020161 
9.880000 	 -12.103694 
9.885000 	 -12.103694 
9.890000 	 -12.187228 
9.895000 	 -12.187228 
9.900000 	 -12.187228 
9.905000 	 -12.187228 
9.910000 	 -12.187228 
9.915000 	 -12.103694 
9.920000 	 -12.020161 
9.925000 	 -12.020161 
9.930000 	 -12.020161 
9.935000 	 -11.769560 
9.940000 	 -11.602493 
9.945000 	 -11.351892 
9.950000 	 -11.184825 
9.955000 	 -10.934225 
9.960000 	 -10.767157 
9.965000 	 -10.683624 
9.970000 	 -10.349490 
9.975000 	 -10.182423 
9.980000 	 -10.015355 
9.985000 	 -9.681221 
9.990000 	 -9.347087 
9.995000 	 -9.096486 
10.000000 	 -8.762352 
10.005000 	 -8.511751 
10.010000 	 -8.344684 
10.015000 	 -8.010550 
10.020000 	 -7.509349 
10.025000 	 -7.008147 
10.030000 	 -6.674013 
10.035000 	 -6.256345 
10.040000 	 -5.922211 
10.045000 	 -5.755144 
10.050000 	 -5.253943 
10.055000 	 -4.752741 
10.060000 	 -4.251540 
10.065000 	 -3.833872 
10.070000 	 -3.332671 
10.075000 	 -2.998536 
10.080000 	 -2.580869 
10.085000 	 -1.996134 
10.090000 	 -1.494932 
10.095000 	 -0.993731 
10.100000 	 -0.408996 
10.105000 	 -0.074862 
10.110000 	 0.259272 
10.115000 	 0.844007 
10.120000 	 1.345209 
10.125000 	 1.929943 
10.130000 	 2.347611 
10.135000 	 3.015880 
10.140000 	 3.600615 
10.145000 	 3.851215 
10.150000 	 4.352417 
10.155000 	 4.770084 
10.160000 	 5.438353 
10.165000 	 5.688954 
10.170000 	 6.440756 
10.175000 	 6.774890 
10.180000 	 7.192558 
10.185000 	 7.693759 
10.190000 	 8.194960 
10.195000 	 8.696162 
10.200000 	 9.113830 
10.205000 	 9.698564 
10.210000 	 9.949165 
10.215000 	 10.533900 
10.220000 	 10.951568 
10.225000 	 11.285702 
10.230000 	 11.619836 
10.235000 	 12.037504 
10.240000 	 12.455172 
10.245000 	 12.872840 
10.250000 	 13.206974 
10.255000 	 13.541108 
10.260000 	 13.875242 
10.265000 	 14.292910 
10.270000 	 14.543511 
10.275000 	 14.794112 
10.280000 	 14.961179 
10.285000 	 15.211779 
10.290000 	 15.462380 
10.295000 	 15.796514 
10.300000 	 15.963581 
10.305000 	 16.130649 
10.310000 	 16.381249 
10.315000 	 16.464783 
10.320000 	 16.715383 
10.325000 	 16.882451 
10.330000 	 16.882451 
10.335000 	 16.965984 
10.340000 	 17.133051 
10.345000 	 17.216585 
10.350000 	 17.300118 
10.355000 	 17.383652 
10.360000 	 17.383652 
10.365000 	 17.383652 
10.370000 	 17.383652 
10.375000 	 17.383652 
10.380000 	 17.300118 
10.385000 	 17.216585 
10.390000 	 17.133051 
10.395000 	 16.965984 
10.400000 	 16.882451 
10.405000 	 16.882451 
10.410000 	 16.798917 
10.415000 	 16.715383 
10.420000 	 16.464783 
10.425000 	 16.297716 
10.430000 	 16.130649 
10.435000 	 15.963581 
10.440000 	 15.796514 
10.445000 	 15.462380 
10.450000 	 15.211779 
10.455000 	 15.128246 
10.460000 	 14.794112 
10.465000 	 14.627044 
10.470000 	 14.376444 
10.475000 	 14.125843 
10.480000 	 13.791709 
10.485000 	 13.374041 
10.490000 	 13.206974 
10.495000 	 12.789306 
10.500000 	 12.455172 
10.505000 	 12.204571 
10.510000 	 11.703370 
10.515000 	 11.369236 
10.520000 	 11.118635 
10.525000 	 10.784501 
10.530000 	 10.366833 
10.535000 	 10.032699 
10.540000 	 9.698564 
10.545000 	 9.280897 
10.550000 	 8.779695 
10.555000 	 8.362028 
10.560000 	 8.027893 
10.565000 	 7.610225 
10.570000 	 7.109024 
10.575000 	 6.858423 
10.580000 	 6.440756 
10.585000 	 5.856021 
10.590000 	 5.605420 
10.595000 	 5.104219 
10.600000 	 4.686551 
10.605000 	 4.352417 
10.610000 	 3.934749 
10.615000 	 3.600615 
10.620000 	 3.266480 
10.625000 	 2.848813 
10.630000 	 2.264078 
10.635000 	 1.929943 
10.640000 	 1.428742 
10.645000 	 1.094608 
10.650000 	 0.676940 
10.655000 	 0.259272 
10.660000 	 -0.074862 
10.665000 	 -0.325463 
10.670000 	 -0.576063 
10.675000 	 -1.077265 
10.680000 	 -1.494932 
10.685000 	 -1.745533 
10.690000 	 -2.079667 
10.695000 	 -2.580869 
10.700000 	 -2.747936 
10.705000 	 -3.082070 
10.710000 	 -3.249137 
10.715000 	 -3.583271 
10.720000 	 -3.833872 
10.725000 	 -4.168006 
10.730000 	 -4.418607 
10.735000 	 -4.585674 
10.740000 	 -4.919808 
10.745000 	 -5.170409 
10.750000 	 -5.504543 
10.755000 	 -5.588077 
10.760000 	 -5.755144 
10.765000 	 -5.838677 
10.770000 	 -5.922211 
10.775000 	 -6.089278 
10.780000 	 -6.339879 
10.785000 	 -6.339879 
10.790000 	 -6.423412 
10.795000 	 -6.506946 
10.800000 	 -6.590480 
10.805000 	 -6.674013 
10.810000 	 -6.757547 
10.815000 	 -6.757547 
10.820000 	 -6.757547 
10.825000 	 -6.841080 
10.830000 	 -6.841080 
10.835000 	 -6.841080 
10.840000 	 -6.757547 
10.845000 	 -6.757547 
10.850000 	 -6.674013 
10.855000 	 -6.590480 
10.860000 	 -6.506946 
10.865000 	 -6.506946 
10.870000 	 -6.423412 
10.875000 	 -6.339879 
10.880000 	 -6.256345 
10.885000 	 -6.005745 
10.890000 	 -5.838677 
10.895000 	 -5.922211 
10.900000 	 -5.838677 
10.905000 	 -5.671610 
10.910000 	 -5.504543 
10.915000 	 -5.421010 
10.920000 	 -5.086875 
10.925000 	 -4.919808 
10.930000 	 -4.585674 
10.935000 	 -4.418607 
10.940000 	 -4.168006 
10.945000 	 -3.917406 
10.950000 	 -3.583271 
10.955000 	 -3.332671 
10.960000 	 -3.249137 
10.965000 	 -2.998536 
10.970000 	 -2.747936 
10.975000 	 -2.497335 
10.980000 	 -2.246734 
10.985000 	 -1.912600 
10.990000 	 -1.578466 
10.995000 	 -1.327865 
11.000000 	 -0.993731 
11.005000 	 -0.492530 
11.010000 	 -0.241929 
11.015000 	 -0.074862 
11.020000 	 0.092205 
11.025000 	 0.426339 
11.030000 	 0.760474 
11.035000 	 1.094608 
11.040000 	 1.428742 
11.045000 	 1.846410 
11.050000 	 2.180544 
11.055000 	 2.431145 
11.060000 	 2.848813 
11.065000 	 3.182947 
11.070000 	 3.517081 
11.075000 	 3.767682 
11.080000 	 4.018282 
11.085000 	 4.352417 
11.090000 	 4.686551 
11.095000 	 4.937152 
11.100000 	 5.271286 
11.105000 	 5.688954 
11.110000 	 5.856021 
11.115000 	 6.357222 
11.120000 	 6.607823 
11.125000 	 6.858423 
11.130000 	 7.025491 
11.135000 	 7.276091 
11.140000 	 7.610225 
11.145000 	 7.860826 
11.150000 	 8.194960 
11.155000 	 8.445561 
11.160000 	 8.612628 
11.165000 	 8.946762 
11.170000 	 9.197363 
11.175000 	 9.531497 
11.180000 	 9.782098 
11.185000 	 9.949165 
11.190000 	 10.032699 
11.195000 	 10.283299 
11.200000 	 10.533900 
11.205000 	 10.700967 
11.210000 	 10.868034 
11.215000 	 11.035101 
11.220000 	 11.118635 
11.225000 	 11.285702 
11.230000 	 11.369236 
11.235000 	 11.452769 
11.240000 	 11.619836 
11.245000 	 11.703370 
11.250000 	 11.786903 
11.255000 	 11.870437 
11.260000 	 11.953971 
11.265000 	 11.953971 
11.270000 	 12.121038 
11.275000 	 12.121038 
11.280000 	 12.121038 
11.285000 	 12.121038 
11.290000 	 12.204571 
11.295000 	 12.204571 
11.300000 	 12.121038 
11.305000 	 12.121038 
11.310000 	 12.121038 
11.315000 	 11.953971 
11.320000 	 11.953971 
11.325000 	 11.953971 
11.330000 	 11.786903 
11.335000 	 11.786903 
11.340000 	 11.703370 
11.345000 	 11.619836 
11.350000 	 11.536303 
11.355000 	 11.369236 
11.360000 	 11.369236 
11.365000 	 11.202169 
11.370000 	 11.118635 
11.375000 	 11.035101 
11.380000 	 10.951568 
11.385000 	 10.700967 
11.390000 	 10.617434 
11.395000 	 10.450366 
11.400000 	 10.199766 
11.405000 	 10.032699 
11.410000 	 9.949165 
11.415000 	 9.782098 
11.420000 	 9.698564 
11.425000 	 9.447964 
11.430000 	 9.113830 
11.435000 	 8.863229 
11.440000 	 8.696162 
11.445000 	 8.445561 
11.450000 	 8.194960 
11.455000 	 8.027893 
11.460000 	 7.777293 
11.465000 	 7.610225 
11.470000 	 7.276091 
11.475000 	 7.109024 
11.480000 	 6.941957 
11.485000 	 6.774890 
11.490000 	 6.607823 
11.495000 	 6.357222 
11.500000 	 6.023088 
11.505000 	 5.688954 
11.510000 	 5.605420 
11.515000 	 5.354819 
11.520000 	 5.104219 
11.525000 	 4.770084 
11.530000 	 4.603017 
11.535000 	 4.352417 
11.540000 	 4.101816 
11.545000 	 3.934749 
11.550000 	 3.684148 
11.555000 	 3.600615 
11.560000 	 3.350014 
11.565000 	 3.015880 
11.570000 	 2.848813 
11.575000 	 2.598212 
11.580000 	 2.264078 
11.585000 	 2.180544 
11.590000 	 1.929943 
11.595000 	 1.679343 
11.600000 	 1.428742 
11.605000 	 1.261675 
11.610000 	 1.094608 
11.615000 	 0.844007 
11.620000 	 0.593407 
11.625000 	 0.426339 
11.630000 	 0.175739 
11.635000 	 0.092205 
11.640000 	 0.008672 
11.645000 	 -0.158395 
11.650000 	 -0.241929 
11.655000 	 -0.325463 
11.660000 	 -0.408996 
11.665000 	 -0.576063 
11.670000 	 -0.743130 
11.675000 	 -0.910198 
11.680000 	 -1.077265 
11.685000 	 -1.160798 
11.690000 	 -1.327865 
11.695000 	 -1.411399 
11.700000 	 -1.494932 
11.705000 	 -1.578466 
11.710000 	 -1.578466 
11.715000 	 -1.662000 
11.720000 	 -1.662000 
11.725000 	 -1.745533 
11.730000 	 -1.745533 
11.735000 	 -1.829067 
11.740000 	 -1.829067 
11.745000 	 -1.829067 
11.750000 	 -1.829067 
11.755000 	 -1.829067 
11.760000 	 -1.829067 
11.765000 	 -1.829067 
11.770000 	 -1.829067 
11.775000 	 -1.745533 
11.780000 	 -1.829067 
11.785000 	 -1.745533 
11.790000 	 -1.662000 
11.795000 	 -1.662000 
11.800000 	 -1.578466 
11.805000 	 -1.578466 
11.810000 	 -1.494932 
11.815000 	 -1.411399 
11.820000 	 -1.411399 
11.825000 	 -1.244332 
11.830000 	 -1.244332 
11.835000 	 -1.077265 
11.840000 	 -0.993731 
11.845000 	 -0.910198 
11.850000 	 -0.743130 
11.855000 	 -0.576063 
11.860000 	 -0.408996 
11.865000 	 -0.325463 
11.870000 	 -0.325463 
11.875000 	 -0.241929 
11.880000 	 -0.158395 
11.885000 	 -0.074862 
11.890000 	 0.008672 
11.895000 	 0.092205 
11.900000 	 0.175739 
11.905000 	 0.342806 
11.910000 	 0.426339 
11.915000 	 0.593407 
11.920000 	 0.760474 
11.925000 	 1.011074 
11.930000 	 1.094608 
11.935000 	 1.178141 
11.940000 	 1.345209 
11.945000 	 1.512276 
11.950000 	 1.762876 
11.955000 	 1.929943 
11.960000 	 2.097011 
11.965000 	 2.264078 
11.970000 	 2.347611 
11.975000 	 2.598212 
11.980000 	 2.765279 
11.985000 	 2.848813 
11.990000 	 3.015880 
11.995000 	 3.266480 
12.000000 	 3.433548 
12.005000 	 3.600615 
12.010000 	 3.684148 
12.015000 	 3.767682 
12.020000 	 3.851215 
12.025000 	 3.934749 
12.030000 	 4.101816 
12.035000 	 4.268883 
12.040000 	 4.435950 
12.045000 	 4.603017 
12.050000 	 4.686551 
12.055000 	 4.770084 
12.060000 	 4.937152 
12.065000 	 5.104219 
12.070000 	 5.187752 
12.075000 	 5.354819 
12.080000 	 5.521887 
12.085000 	 5.605420 
12.090000 	 5.688954 
12.095000 	 5.688954 
12.100000 	 5.856021 
12.105000 	 5.939554 
12.110000 	 6.106621 
12.115000 	 6.273689 
12.120000 	 6.357222 
12.125000 	 6.524289 
12.130000 	 6.524289 
12.135000 	 6.607823 
12.140000 	 6.691356 
12.145000 	 6.691356 
12.150000 	 6.774890 
12.155000 	 6.858423 
12.160000 	 6.858423 
12.165000 	 6.858423 
12.170000 	 7.025491 
12.175000 	 7.025491 
12.180000 	 7.025491 
12.185000 	 7.025491 
12.190000 	 7.109024 
12.195000 	 7.025491 
12.200000 	 7.025491 
12.205000 	 7.109024 
12.210000 	 7.109024 
12.215000 	 7.025491 
12.220000 	 7.109024 
12.225000 	 7.109024 
12.230000 	 7.109024 
12.235000 	 7.109024 
12.240000 	 7.109024 
12.245000 	 7.025491 
12.250000 	 7.025491 
12.255000 	 7.025491 
12.260000 	 6.941957 
12.265000 	 6.941957 
12.270000 	 7.025491 
12.275000 	 6.941957 
12.280000 	 6.858423 
12.285000 	 6.858423 
12.290000 	 6.858423 
12.295000 	 6.858423 
12.300000 	 6.774890 
12.305000 	 6.774890 
12.310000 	 6.691356 
12.315000 	 6.607823 
12.320000 	 6.607823 
12.325000 	 6.607823 
12.330000 	 6.524289 
12.335000 	 6.524289 
12.340000 	 6.524289 
12.345000 	 6.440756 
12.350000 	 6.357222 
12.355000 	 6.357222 
12.360000 	 6.190155 
12.365000 	 6.106621 
12.370000 	 6.023088 
12.375000 	 5.939554 
12.380000 	 5.772487 
12.385000 	 5.772487 
12.390000 	 5.688954 
12.395000 	 5.688954 
12.400000 	 5.605420 
12.405000 	 5.605420 
12.410000 	 5.605420 
12.415000 	 5.521887 
12.420000 	 5.354819 
12.425000 	 5.354819 
12.430000 	 5.187752 
12.435000 	 5.104219 
12.440000 	 5.020685 
12.445000 	 4.937152 
12.450000 	 4.937152 
12.455000 	 4.853618 
12.460000 	 4.770084 
12.465000 	 4.686551 
12.470000 	 4.686551 
12.475000 	 4.519484 
12.480000 	 4.519484 
12.485000 	 4.519484 
12.490000 	 4.435950 
12.495000 	 4.352417 
12.500000 	 4.268883 
12.505000 	 4.185350 
12.510000 	 4.101816 
12.515000 	 4.101816 
12.520000 	 4.018282 
12.525000 	 4.018282 
12.530000 	 3.934749 
12.535000 	 3.851215 
12.540000 	 3.851215 
12.545000 	 3.767682 
12.550000 	 3.767682 
12.555000 	 3.767682 
12.560000 	 3.684148 
12.565000 	 3.600615 
12.570000 	 3.684148 
12.575000 	 3.600615 
12.580000 	 3.600615 
12.585000 	 3.517081 
12.590000 	 3.517081 
12.595000 	 3.517081 
12.600000 	 3.433548 
12.605000 	 3.433548 
12.610000 	 3.433548 
12.615000 	 3.350014 
12.620000 	 3.350014 
12.625000 	 3.350014 
12.630000 	 3.266480 
12.635000 	 3.266480 
12.640000 	 3.266480 
12.645000 	 3.266480 
12.650000 	 3.266480 
12.655000 	 3.266480 
12.660000 	 3.266480 
12.665000 	 3.182947 
12.670000 	 3.182947 
12.675000 	 3.266480 
12.680000 	 3.182947 
12.685000 	 3.266480 
12.690000 	 3.266480 
12.695000 	 3.266480 
12.700000 	 3.266480 
12.705000 	 3.266480 
12.710000 	 3.266480 
12.715000 	 3.266480 
12.720000 	 3.266480 
12.725000 	 3.266480 
12.730000 	 3.266480 
12.735000 	 3.266480 
12.740000 	 3.266480 
12.745000 	 3.266480 
12.750000 	 3.266480 
12.755000 	 3.266480 
12.760000 	 3.266480 
12.765000 	 3.266480 
12.770000 	 3.266480 
12.775000 	 3.266480 
12.780000 	 3.266480 
12.785000 	 3.266480 
12.790000 	 3.266480 
12.795000 	 3.266480 
12.800000 	 3.266480 
12.805000 	 3.266480 
12.810000 	 3.266480 
12.815000 	 3.266480 
12.820000 	 3.266480 
12.825000 	 3.266480 
12.830000 	 3.266480 
12.835000 	 3.266480 
12.840000 	 3.350014 
12.845000 	 3.266480 
12.850000 	 3.266480 
12.855000 	 3.266480 
12.860000 	 3.266480 
12.865000 	 3.266480 
12.870000 	 3.266480 
12.875000 	 3.266480 
12.880000 	 3.266480 
12.885000 	 3.266480 
12.890000 	 3.266480 
12.895000 	 3.266480 
12.900000 	 3.266480 
12.905000 	 3.266480 
12.910000 	 3.266480 
12.915000 	 3.266480 
12.920000 	 3.266480 
12.925000 	 3.266480 
12.930000 	 3.266480 
12.935000 	 3.266480 
12.940000 	 3.350014 
12.945000 	 3.266480 
12.950000 	 3.266480 
12.955000 	 3.266480 
12.960000 	 3.266480 
12.965000 	 3.266480 
12.970000 	 3.266480 
12.975000 	 3.266480 
12.980000 	 3.266480 
12.985000 	 3.266480 
12.990000 	 3.266480 
12.995000 	 3.350014 
13.000000 	 3.266480 
13.005000 	 3.266480 
13.010000 	 3.266480 
13.015000 	 3.266480 
13.020000 	 3.266480 
13.025000 	 3.266480 
13.030000 	 3.266480 
13.035000 	 3.266480 
13.040000 	 3.350014 
13.045000 	 3.266480 
13.050000 	 3.266480 
13.055000 	 3.266480 
13.060000 	 3.266480 
13.065000 	 3.266480 
13.070000 	 3.266480 
13.075000 	 3.266480 
13.080000 	 3.266480 
13.085000 	 3.266480 
13.090000 	 3.266480 
13.095000 	 3.266480 
13.100000 	 3.266480 
13.105000 	 3.266480 
13.110000 	 3.266480 
13.115000 	 3.266480 
13.120000 	 3.266480 
13.125000 	 3.266480 
13.130000 	 3.266480 
13.135000 	 3.266480 
13.140000 	 3.266480 
13.145000 	 3.266480 
13.150000 	 3.266480 
13.155000 	 3.266480 
13.160000 	 3.266480 
13.165000 	 3.266480 
13.170000 	 3.266480 
13.175000 	 3.266480 
13.180000 	 3.266480 
13.185000 	 3.266480 
13.190000 	 3.266480 
13.195000 	 3.266480 
13.200000 	 3.266480 
13.205000 	 3.266480 
13.210000 	 3.182947 
13.215000 	 3.266480 
13.220000 	 3.266480 
13.225000 	 3.266480 
13.230000 	 3.266480 
13.235000 	 3.266480 
13.240000 	 3.350014 
13.245000 	 3.266480 
13.250000 	 3.266480 
13.255000 	 3.266480 
13.260000 	 3.266480 
13.265000 	 3.182947 
13.270000 	 3.266480 
13.275000 	 3.266480 
13.280000 	 3.266480 
13.285000 	 3.266480 
13.290000 	 3.266480 
13.295000 	 3.266480 
13.300000 	 3.266480 
13.305000 	 3.266480 
13.310000 	 3.266480 
13.315000 	 3.266480 
13.320000 	 3.266480 
13.325000 	 3.266480 
13.330000 	 3.266480 
13.335000 	 3.266480 
13.340000 	 3.266480 
13.345000 	 3.266480 
13.350000 	 3.266480 
13.355000 	 3.350014 
13.360000 	 3.266480 
13.365000 	 3.266480 
13.370000 	 3.266480 
13.375000 	 3.266480 
13.380000 	 3.182947 
13.385000 	 3.266480 
13.390000 	 3.266480 
13.395000 	 3.266480 
13.400000 	 3.266480 
13.405000 	 3.266480 
13.410000 	 3.266480 
13.415000 	 3.266480 
13.420000 	 3.266480 
13.425000 	 3.266480 
13.430000 	 3.266480 
13.435000 	 3.266480 
13.440000 	 3.266480 
13.445000 	 3.266480 
13.450000 	 3.266480 
13.455000 	 3.266480 
13.460000 	 3.266480 
13.465000 	 3.266480 
13.470000 	 3.266480 
13.475000 	 3.266480 
13.480000 	 3.266480 
13.485000 	 3.266480 
13.490000 	 3.266480 
13.495000 	 3.266480 
13.500000 	 3.266480 
13.505000 	 3.266480 
13.510000 	 3.266480 
13.515000 	 3.266480 
13.520000 	 3.266480 
13.525000 	 3.266480 
13.530000 	 3.266480 
13.535000 	 3.266480 
13.540000 	 3.266480 
13.545000 	 3.266480 
13.550000 	 3.266480 
13.555000 	 3.266480 
13.560000 	 3.266480 
13.565000 	 3.266480 
13.570000 	 3.266480 
13.575000 	 3.350014 
13.580000 	 3.266480 
13.585000 	 3.266480 
13.590000 	 3.266480 
13.595000 	 3.266480 
13.600000 	 3.266480 
13.605000 	 3.266480 
13.610000 	 3.266480 
13.615000 	 3.266480 
13.620000 	 3.266480 
13.625000 	 3.266480 
13.630000 	 3.266480 
13.635000 	 3.266480 
13.640000 	 3.266480 
13.645000 	 3.266480 
13.650000 	 3.266480 
13.655000 	 3.266480 
13.660000 	 3.266480 
13.665000 	 3.266480 
13.670000 	 3.350014 
13.675000 	 3.266480 
13.680000 	 3.266480 
13.685000 	 3.266480 
13.690000 	 3.266480 
13.695000 	 3.266480 
13.700000 	 3.266480 
13.705000 	 3.350014 
13.710000 	 3.266480 
13.715000 	 3.266480 
13.720000 	 3.266480 
13.725000 	 3.266480 
13.730000 	 3.266480 
13.735000 	 3.266480 
13.740000 	 3.350014 
13.745000 	 3.266480 
13.750000 	 3.266480 
13.755000 	 3.266480 
13.760000 	 3.266480 
13.765000 	 3.266480 
13.770000 	 3.266480 
13.775000 	 3.266480 
13.780000 	 3.266480 
13.785000 	 3.266480 
13.790000 	 3.266480 
13.795000 	 3.266480 
13.800000 	 3.266480 
13.805000 	 3.266480 
13.810000 	 3.266480 
13.815000 	 3.266480 
13.820000 	 3.266480 
13.825000 	 3.266480 
13.830000 	 3.266480 
13.835000 	 3.266480 
13.840000 	 3.266480 
13.845000 	 3.266480 
13.850000 	 3.266480 
13.855000 	 3.266480 
13.860000 	 3.266480 
13.865000 	 3.266480 
13.870000 	 3.266480 
13.875000 	 3.266480 
13.880000 	 3.266480 
13.885000 	 3.266480 
13.890000 	 3.266480 
13.895000 	 3.266480 
13.900000 	 3.266480 
13.905000 	 3.266480 
13.910000 	 3.266480 
13.915000 	 3.266480 
13.920000 	 3.266480 
13.925000 	 3.266480 
13.930000 	 3.266480 
13.935000 	 3.266480 
13.940000 	 3.266480 
13.945000 	 3.266480 
13.950000 	 3.266480 
13.955000 	 3.266480 
13.960000 	 3.266480 
13.965000 	 3.266480 
13.970000 	 3.266480 
13.975000 	 3.266480 
13.980000 	 3.266480 
13.985000 	 3.266480 
13.990000 	 3.266480 
13.995000 	 3.266480 
14.000000 	 3.266480 
14.005000 	 3.266480 
14.010000 	 3.266480 
14.015000 	 3.266480 
14.020000 	 3.266480 
14.025000 	 3.266480 
14.030000 	 3.266480 
14.035000 	 3.266480 
14.040000 	 3.266480 
14.045000 	 3.266480 
14.050000 	 3.266480 
14.055000 	 3.266480 
14.060000 	 3.266480 
14.065000 	 3.266480 
14.070000 	 3.266480 
14.075000 	 3.266480 
14.080000 	 3.266480 
14.085000 	 3.266480 
14.090000 	 3.266480 
14.095000 	 3.266480 
14.100000 	 3.266480 
14.105000 	 3.266480 
14.110000 	 3.266480 
14.115000 	 3.266480 
14.120000 	 3.266480 
14.125000 	 3.266480 
14.130000 	 3.266480 
14.135000 	 3.266480 
14.140000 	 3.266480 
14.145000 	 3.266480 
14.150000 	 3.266480 
14.155000 	 3.266480 
14.160000 	 3.266480 
14.165000 	 3.266480 
14.170000 	 3.266480 
14.175000 	 3.266480 
14.180000 	 3.266480 
14.185000 	 3.266480 
14.190000 	 3.266480 
14.195000 	 3.266480 
14.200000 	 3.266480 
14.205000 	 3.266480 
14.210000 	 3.266480 
14.215000 	 3.266480 
14.220000 	 3.266480 
14.225000 	 3.266480 
14.230000 	 3.266480 
14.235000 	 3.266480 
14.240000 	 3.266480 
14.245000 	 3.266480 
14.250000 	 3.182947 
14.255000 	 3.266480 
14.260000 	 3.266480 
14.265000 	 3.266480 
14.270000 	 3.266480 
14.275000 	 3.266480 
14.280000 	 3.266480 
14.285000 	 3.266480 
14.290000 	 3.266480 
14.295000 	 3.266480 
14.300000 	 3.266480 
14.305000 	 3.266480 
14.310000 	 3.266480 
14.315000 	 3.266480 
14.320000 	 3.266480 
14.325000 	 3.266480 
14.330000 	 3.266480 
14.335000 	 3.266480 
14.340000 	 3.266480 
14.345000 	 3.266480 
14.350000 	 3.266480 
14.355000 	 3.266480 
14.360000 	 3.266480 
14.365000 	 3.266480 
14.370000 	 3.266480 
14.375000 	 3.266480 
14.380000 	 3.266480 
14.385000 	 3.266480 
14.390000 	 3.266480 
14.395000 	 3.266480 
14.400000 	 3.266480 
14.405000 	 3.350014 
14.410000 	 3.266480 
14.415000 	 3.266480 
14.420000 	 3.266480 
14.425000 	 3.266480 
14.430000 	 3.266480 
14.435000 	 3.266480 
14.440000 	 3.266480 
14.445000 	 3.266480 
14.450000 	 3.266480 
14.455000 	 3.266480 
14.460000 	 3.350014 
14.465000 	 3.266480 
14.470000 	 3.350014 
14.475000 	 3.350014 
14.480000 	 3.266480 
14.485000 	 3.266480 
14.490000 	 3.350014 
14.495000 	 3.182947 
14.500000 	 3.266480 
14.505000 	 3.266480 
14.510000 	 3.266480 
14.515000 	 3.266480 
14.520000 	 3.266480 
14.525000 	 3.266480 
14.530000 	 3.266480 
14.535000 	 3.266480 
14.540000 	 3.266480 
14.545000 	 3.266480 
14.550000 	 3.266480 
14.555000 	 3.266480 
14.560000 	 3.266480 
14.565000 	 3.266480 
14.570000 	 3.266480 
14.575000 	 3.266480 
14.580000 	 3.266480 
14.585000 	 3.266480 
14.590000 	 3.266480 
14.595000 	 3.266480 
14.600000 	 3.266480 
14.605000 	 3.266480 
14.610000 	 3.266480 
14.615000 	 3.266480 
14.620000 	 3.266480 
14.625000 	 3.266480 
14.630000 	 3.266480 
14.635000 	 3.266480 
14.640000 	 3.266480 
14.645000 	 3.266480 
14.650000 	 3.266480 
14.655000 	 3.266480 
14.660000 	 3.266480 
14.665000 	 3.266480 
14.670000 	 3.266480 
14.675000 	 3.266480 
14.680000 	 3.266480 
14.685000 	 3.266480 
14.690000 	 3.266480 
14.695000 	 3.266480 
14.700000 	 3.266480 
14.705000 	 3.266480 
14.710000 	 3.266480 
14.715000 	 3.266480 
14.720000 	 3.266480 
14.725000 	 3.350014 
14.730000 	 3.266480 
14.735000 	 3.266480 
14.740000 	 3.266480 
14.745000 	 3.266480 
14.750000 	 3.266480 
14.755000 	 3.266480 
14.760000 	 3.266480 
14.765000 	 3.266480 
14.770000 	 3.266480 
14.775000 	 3.266480 
14.780000 	 3.266480 
14.785000 	 3.266480 
14.790000 	 3.266480 
14.795000 	 3.266480 
14.800000 	 3.266480 
14.805000 	 3.266480 
14.810000 	 3.266480 
14.815000 	 3.266480 
14.820000 	 3.266480 
14.825000 	 3.266480 
14.830000 	 3.266480 
14.835000 	 3.266480 
14.840000 	 3.350014 
14.845000 	 3.266480 
14.850000 	 3.266480 
14.855000 	 3.266480 
14.860000 	 3.266480 
14.865000 	 3.266480 
14.870000 	 3.266480 
14.875000 	 3.266480 
14.880000 	 3.266480 
14.885000 	 3.266480 
14.890000 	 3.266480 
14.895000 	 3.266480 
14.900000 	 3.266480 
14.905000 	 3.266480 
14.910000 	 3.266480 
14.915000 	 3.266480 
14.920000 	 3.266480 
14.925000 	 3.266480 
14.930000 	 3.266480 
14.935000 	 3.266480 
14.940000 	 3.266480 
14.945000 	 3.266480 
14.950000 	 3.266480 
14.955000 	 3.266480 
14.960000 	 3.266480 
14.965000 	 3.266480 
14.970000 	 3.266480 
14.975000 	 3.266480 
14.980000 	 3.266480 
14.985000 	 3.266480 
14.990000 	 3.266480 
14.995000 	 3.266480 
