Times (s)	Angular Position (degrees)
0.000000	91.268303
0.005000	91.358577
0.010000	91.268303
0.015000	91.268303
0.020000	91.336009
0.025000	91.313440
0.030000	91.268303
0.035000	91.290872
0.040000	91.268303
0.045000	91.313440
0.050000	91.448850
0.055000	91.336009
0.060000	91.381145
0.065000	91.381145
0.070000	91.358577
0.075000	91.290872
0.080000	91.426282
0.085000	91.358577
0.090000	91.313440
0.095000	91.313440
0.100000	91.223167
0.105000	91.471419
0.110000	91.268303
0.115000	91.245735
0.120000	91.403714
0.125000	91.516555
0.130000	91.426282
0.135000	91.268303
0.140000	91.336009
0.145000	91.358577
0.150000	91.313440
0.155000	91.313440
0.160000	91.336009
0.165000	91.358577
0.170000	91.358577
0.175000	91.336009
0.180000	91.358577
0.185000	91.313440
0.190000	91.358577
0.195000	91.336009
0.200000	91.268303
0.205000	91.313440
0.210000	91.336009
0.215000	91.290872
0.220000	91.313440
0.225000	91.403714
0.230000	91.313440
0.235000	91.336009
0.240000	91.336009
0.245000	91.268303
0.250000	91.358577
0.255000	91.381145
0.260000	91.313440
0.265000	91.268303
0.270000	91.268303
0.275000	91.268303
0.280000	91.245735
0.285000	91.313440
0.290000	91.358577
0.295000	91.403714
0.300000	91.381145
0.305000	91.426282
0.310000	91.403714
0.315000	91.358577
0.320000	91.403714
0.325000	91.403714
0.330000	91.403714
0.335000	91.426282
0.340000	91.426282
0.345000	91.268303
0.350000	91.336009
0.355000	91.471419
0.360000	91.290872
0.365000	91.358577
0.370000	91.290872
0.375000	91.403714
0.380000	91.358577
0.385000	91.313440
0.390000	91.358577
0.395000	91.358577
0.400000	91.313440
0.405000	91.358577
0.410000	91.313440
0.415000	91.313440
0.420000	91.336009
0.425000	91.313440
0.430000	91.336009
0.435000	91.381145
0.440000	91.471419
0.445000	91.606829
0.450000	91.561692
0.455000	91.516555
0.460000	91.403714
0.465000	91.268303
0.470000	91.358577
0.475000	91.336009
0.480000	91.290872
0.485000	91.426282
0.490000	91.268303
0.495000	91.448850
0.500000	91.448850
0.505000	91.584261
0.510000	91.448850
0.515000	91.448850
0.520000	91.584261
0.525000	91.584261
0.530000	91.426282
0.535000	91.403714
0.540000	91.448850
0.545000	91.426282
0.550000	91.539124
0.555000	91.674534
0.560000	91.448850
0.565000	91.629397
0.570000	91.403714
0.575000	91.403714
0.580000	91.358577
0.585000	91.403714
0.590000	91.426282
0.595000	91.403714
0.600000	91.493987
0.605000	91.606829
0.610000	91.493987
0.615000	91.403714
0.620000	91.403714
0.625000	91.426282
0.630000	91.381145
0.635000	91.336009
0.640000	91.403714
0.645000	91.381145
0.650000	91.381145
0.655000	91.426282
0.660000	91.403714
0.665000	91.381145
0.670000	91.426282
0.675000	91.448850
0.680000	91.358577
0.685000	91.403714
0.690000	91.471419
0.695000	91.381145
0.700000	91.471419
0.705000	91.584261
0.710000	91.403714
0.715000	91.403714
0.720000	91.403714
0.725000	91.403714
0.730000	91.358577
0.735000	91.426282
0.740000	91.313440
0.745000	91.336009
0.750000	91.448850
0.755000	91.471419
0.760000	91.336009
0.765000	91.403714
0.770000	91.336009
0.775000	91.426282
0.780000	91.448850
0.785000	91.336009
0.790000	91.403714
0.795000	91.448850
0.800000	91.471419
0.805000	91.584261
0.810000	91.471419
0.815000	91.448850
0.820000	91.471419
0.825000	91.403714
0.830000	91.448850
0.835000	91.336009
0.840000	91.426282
0.845000	91.471419
0.850000	91.403714
0.855000	91.561692
0.860000	91.403714
0.865000	91.448850
0.870000	91.426282
0.875000	91.471419
0.880000	91.584261
0.885000	91.493987
0.890000	91.448850
0.895000	91.471419
0.900000	91.448850
0.905000	91.584261
0.910000	91.358577
0.915000	91.200598
0.920000	90.974915
0.925000	90.771800
0.930000	90.591253
0.935000	90.816936
0.940000	90.343001
0.945000	90.320432
0.950000	90.185022
0.955000	90.094749
0.960000	89.981907
0.965000	89.801360
0.970000	89.801360
0.975000	89.485403
0.980000	89.259719
0.985000	88.740647
0.990000	88.379553
0.995000	87.499387
1.000000	87.454251
1.005000	86.867473
1.010000	85.671350
1.015000	85.129710
1.020000	84.226975
1.025000	83.301672
1.030000	82.353801
1.035000	81.089973
1.040000	80.187239
1.045000	79.081389
1.050000	77.659582
1.055000	76.350618
1.060000	74.973948
1.065000	73.326457
1.070000	71.746672
1.075000	70.324865
1.080000	68.925627
1.085000	66.894475
1.090000	65.246984
1.095000	63.351242
1.100000	61.252385
1.105000	59.537189
1.110000	57.122375
1.115000	55.158927
1.120000	52.969797
1.125000	50.803234
1.130000	48.298146
1.135000	46.492677
1.140000	43.761906
1.145000	41.617911
1.150000	39.045118
1.155000	36.720577
1.160000	34.170353
1.165000	31.213898
1.170000	28.799083
1.175000	26.474542
1.180000	23.495518
1.185000	20.945294
1.190000	18.259659
1.195000	15.822276
1.200000	13.114073
1.205000	10.654122
1.210000	7.652530
1.215000	4.831485
1.220000	2.145850
1.225000	-0.584922
1.230000	-3.405967
1.235000	-6.136738
1.240000	-9.025488
1.245000	-11.643418
1.250000	-14.193643
1.255000	-16.946983
1.260000	-19.722891
1.265000	-21.957159
1.270000	-24.891045
1.275000	-27.328428
1.280000	-29.652969
1.285000	-32.316036
1.290000	-34.460030
1.295000	-36.716866
1.300000	-39.199386
1.305000	-41.072560
1.310000	-43.555079
1.315000	-45.834484
1.320000	-48.294435
1.325000	-50.280450
1.330000	-52.311603
1.335000	-54.433029
1.340000	-56.215929
1.345000	-58.179376
1.350000	-59.984845
1.355000	-61.722609
1.360000	-63.234689
1.365000	-65.040158
1.370000	-66.326554
1.375000	-67.928908
1.380000	-69.170168
1.385000	-70.614543
1.390000	-72.036349
1.395000	-73.119631
1.400000	-74.112639
1.405000	-74.857394
1.410000	-76.121223
1.415000	-77.497893
1.420000	-78.129807
1.425000	-79.009973
1.430000	-79.709592
1.435000	-80.318938
1.440000	-81.153967
1.445000	-81.289377
1.450000	-81.763313
1.455000	-82.101838
1.460000	-82.666047
1.465000	-82.936867
1.470000	-83.162551
1.475000	-83.004572
1.480000	-83.162551
1.485000	-82.914299
1.490000	-82.959436
1.495000	-83.027141
1.500000	-82.598342
1.505000	-81.853586
1.510000	-81.876154
1.515000	-81.740744
1.520000	-81.311945
1.525000	-80.612326
1.530000	-79.777297
1.535000	-79.438772
1.540000	-78.513469
1.545000	-77.836418
1.550000	-76.775705
1.555000	-75.805266
1.560000	-74.970236
1.565000	-73.819250
1.570000	-72.735969
1.575000	-71.494709
1.580000	-70.005197
1.585000	-68.854211
1.590000	-67.454972
1.595000	-65.694640
1.600000	-64.182560
1.605000	-62.512502
1.610000	-61.045558
1.615000	-59.533478
1.620000	-57.163800
1.625000	-55.493742
1.630000	-53.530294
1.635000	-52.018214
1.640000	-49.738810
1.645000	-47.775362
1.650000	-45.653937
1.655000	-43.306827
1.660000	-41.298243
1.665000	-39.063976
1.670000	-36.513751
1.675000	-34.414893
1.680000	-32.158057
1.685000	-29.630401
1.690000	-27.486407
1.695000	-24.868477
1.700000	-22.273116
1.705000	-19.226387
1.710000	-17.195235
1.715000	-14.802989
1.720000	-12.230195
1.725000	-9.612266
1.730000	-7.062041
1.735000	-4.195859
1.740000	-1.871318
1.745000	0.701475
1.750000	3.635362
1.755000	6.050176
1.760000	8.622969
1.765000	11.218331
1.770000	13.610577
1.775000	16.341348
1.780000	18.914141
1.785000	21.396661
1.790000	23.879181
1.795000	26.451974
1.800000	28.663673
1.805000	31.281603
1.810000	33.470734
1.815000	35.705001
1.820000	37.848995
1.825000	40.444357
1.830000	42.362667
1.835000	44.461525
1.840000	46.673224
1.845000	48.410988
1.850000	50.351867
1.855000	52.360451
1.860000	54.346467
1.865000	56.039094
1.870000	57.912267
1.875000	59.604894
1.880000	61.094406
1.885000	62.741896
1.890000	64.208840
1.895000	65.562941
1.900000	67.097590
1.905000	68.451692
1.910000	69.264152
1.915000	70.415139
1.920000	71.385578
1.925000	72.378586
1.930000	73.258752
1.935000	74.387170
1.940000	75.019084
1.945000	75.763840
1.950000	76.486028
1.955000	77.027668
1.960000	77.456467
1.965000	77.749856
1.970000	78.133518
1.975000	78.517180
1.980000	78.607454
1.985000	78.900842
1.990000	79.081389
1.995000	78.945979
2.000000	78.991116
2.005000	78.991116
2.010000	78.381770
2.015000	78.178655
2.020000	77.591877
2.025000	77.321057
2.030000	76.892258
2.035000	76.215207
2.040000	75.921819
2.045000	75.041653
2.050000	74.364602
2.055000	73.326457
2.060000	72.446291
2.065000	71.633830
2.070000	70.527981
2.075000	69.534973
2.080000	68.361418
2.085000	66.871906
2.090000	65.833762
2.095000	64.411955
2.100000	62.922443
2.105000	61.568342
2.110000	59.920851
2.115000	58.115383
2.120000	56.671008
2.125000	54.820402
2.130000	52.969797
2.135000	51.164328
2.140000	49.381427
2.145000	47.575959
2.150000	45.409396
2.155000	43.310538
2.160000	41.279386
2.165000	39.361075
2.170000	37.013966
2.175000	34.802267
2.180000	32.455157
2.185000	30.401437
2.190000	27.851212
2.195000	25.955470
2.200000	23.314972
2.205000	21.035567
2.210000	18.485342
2.215000	16.205938
2.220000	13.588008
2.225000	11.353741
2.230000	8.645538
2.235000	6.388702
2.240000	3.928750
2.245000	1.401094
2.250000	-1.036289
2.255000	-3.518809
2.260000	-6.114170
2.265000	-8.235596
2.270000	-10.876094
2.275000	-13.403750
2.280000	-15.750860
2.285000	-18.075401
2.290000	-20.309668
2.295000	-22.905030
2.300000	-25.049024
2.305000	-27.080176
2.310000	-29.472423
2.315000	-31.909805
2.320000	-33.805548
2.325000	-35.746427
2.330000	-37.935558
2.335000	-40.124688
2.340000	-41.907589
2.345000	-44.006446
2.350000	-45.902189
2.355000	-47.730226
2.360000	-49.558263
2.365000	-51.431437
2.370000	-52.875812
2.375000	-54.703849
2.380000	-56.103087
2.385000	-57.728009
2.390000	-59.082111
2.395000	-60.323371
2.400000	-61.767746
2.405000	-62.715617
2.410000	-64.114855
2.415000	-65.491525
2.420000	-66.461965
2.425000	-67.342131
2.430000	-68.447980
2.435000	-68.899347
2.440000	-69.802082
2.445000	-70.704816
2.450000	-71.201320
2.455000	-71.742961
2.460000	-72.690832
2.465000	-72.939084
2.470000	-73.367883
2.475000	-73.706408
2.480000	-74.157775
2.485000	-74.293185
2.490000	-74.473732
2.495000	-74.518869
2.500000	-74.360891
2.505000	-74.225480
2.510000	-74.180344
2.515000	-73.954660
2.520000	-73.932092
2.525000	-73.548430
2.530000	-72.939084
2.535000	-73.029357
2.540000	-71.946076
2.545000	-71.427004
2.550000	-71.065910
2.555000	-70.050334
2.560000	-69.508693
2.565000	-68.763937
2.570000	-67.635519
2.575000	-66.981037
2.580000	-65.649504
2.585000	-64.724201
2.590000	-63.370099
2.595000	-62.309386
2.600000	-61.000421
2.605000	-59.714025
2.610000	-58.337355
2.615000	-57.118664
2.620000	-55.313195
2.625000	-53.643136
2.630000	-52.198761
2.635000	-50.122472
2.640000	-48.926349
2.645000	-47.030607
2.650000	-45.112296
2.655000	-43.081144
2.660000	-41.501358
2.665000	-39.515343
2.670000	-37.348780
2.675000	-35.588448
2.680000	-33.399317
2.685000	-31.323028
2.690000	-29.472423
2.695000	-27.260723
2.700000	-24.868477
2.705000	-22.498799
2.710000	-20.309668
2.715000	-18.075401
2.720000	-15.999112
2.725000	-13.516592
2.730000	-11.169483
2.735000	-9.183467
2.740000	-6.339854
2.745000	-4.173291
2.750000	-1.893887
2.755000	0.498360
2.760000	2.800332
2.765000	5.215147
2.770000	7.629961
2.775000	9.977071
2.780000	12.143633
2.785000	14.423038
2.790000	16.770147
2.795000	19.004415
2.800000	21.216114
2.805000	23.630929
2.810000	25.820059
2.815000	27.580392
2.820000	29.837228
2.825000	31.845812
2.830000	33.989806
2.835000	35.953253
2.840000	37.826427
2.845000	39.947853
2.850000	41.821027
2.855000	43.558790
2.860000	45.341691
2.865000	46.876339
2.870000	48.704377
2.875000	50.284162
2.880000	51.728537
2.885000	53.308322
2.890000	54.639855
2.895000	56.219640
2.900000	57.573742
2.905000	58.927844
2.910000	60.033693
2.915000	61.116975
2.920000	62.087414
2.925000	63.193264
2.930000	63.915451
2.935000	65.179279
2.940000	65.811193
2.945000	66.397971
2.950000	67.007316
2.955000	67.616662
2.960000	68.248576
2.965000	68.948195
2.970000	69.151311
2.975000	69.422131
2.980000	69.873498
2.985000	69.850930
2.990000	69.918635
2.995000	70.031477
3.000000	70.031477
3.005000	70.099182
3.010000	69.963772
3.015000	69.738088
3.020000	69.286721
3.025000	68.948195
3.030000	68.609670
3.035000	68.022893
3.040000	67.390979
3.045000	66.691359
3.050000	66.194856
3.055000	65.562941
3.060000	64.592502
3.065000	63.825178
3.070000	62.922443
3.075000	61.839162
3.080000	60.778449
3.085000	59.650031
3.090000	58.408771
3.095000	57.235217
3.100000	56.016525
3.105000	54.549582
3.110000	53.127775
3.115000	51.570558
3.120000	50.171320
3.125000	48.478693
3.130000	46.898908
3.135000	45.409396
3.140000	43.603927
3.145000	41.956437
3.150000	40.015558
3.155000	38.097247
3.160000	36.404620
3.165000	34.260626
3.170000	32.410021
3.175000	30.581983
3.180000	28.122032
3.185000	26.406837
3.190000	24.059727
3.195000	21.960870
3.200000	20.087696
3.205000	17.853428
3.210000	15.686866
3.215000	13.452598
3.220000	11.173194
3.225000	9.096905
3.230000	6.998047
3.235000	4.650938
3.240000	2.484375
3.245000	0.250108
3.250000	-2.254980
3.255000	-4.286133
3.260000	-6.362422
3.265000	-8.664395
3.270000	-10.830957
3.275000	-13.223203
3.280000	-15.322061
3.285000	-17.398350
3.290000	-19.632618
3.295000	-21.708907
3.300000	-23.717491
3.305000	-25.364981
3.310000	-27.824932
3.315000	-29.675538
3.320000	-31.548712
3.325000	-33.489591
3.330000	-35.407901
3.335000	-37.100528
3.340000	-38.793155
3.345000	-40.666329
3.350000	-42.426661
3.355000	-43.803331
3.360000	-45.541095
3.365000	-47.143448
3.370000	-48.632960
3.375000	-49.625968
3.380000	-51.611984
3.385000	-52.582423
3.390000	-53.823683
3.395000	-55.200353
3.400000	-56.012814
3.405000	-57.321779
3.410000	-58.427628
3.415000	-59.375500
3.420000	-60.458781
3.425000	-60.910148
3.430000	-62.106271
3.435000	-62.760754
3.440000	-63.347531
3.445000	-63.731193
3.450000	-64.272834
3.455000	-64.724201
3.460000	-65.491525
3.465000	-65.626935
3.470000	-65.920324
3.475000	-66.100871
3.480000	-66.100871
3.485000	-66.461965
3.490000	-66.326554
3.495000	-66.349123
3.500000	-66.055734
3.505000	-65.446388
3.510000	-65.897756
3.515000	-65.649504
3.520000	-65.333547
3.525000	-64.904748
3.530000	-64.317970
3.535000	-63.776330
3.540000	-63.212121
3.545000	-62.805890
3.550000	-62.106271
3.555000	-61.180968
3.560000	-60.323371
3.565000	-59.646320
3.570000	-58.495333
3.575000	-57.682873
3.580000	-56.599591
3.585000	-55.222921
3.590000	-54.275050
3.595000	-52.762970
3.600000	-51.702257
3.605000	-49.603400
3.610000	-48.926349
3.615000	-47.707657
3.620000	-45.992462
3.625000	-44.502950
3.630000	-42.878028
3.635000	-41.320812
3.640000	-39.605616
3.645000	-38.048399
3.650000	-35.859268
3.655000	-34.414893
3.660000	-32.699698
3.665000	-30.691114
3.670000	-29.021055
3.675000	-27.057608
3.680000	-25.184434
3.685000	-23.085577
3.690000	-21.076993
3.695000	-19.113545
3.700000	-17.150098
3.705000	-14.848125
3.710000	-12.591289
3.715000	-10.718115
3.720000	-8.528984
3.725000	-6.362422
3.730000	-4.263564
3.735000	-2.458096
3.740000	-0.381806
3.745000	2.033008
3.750000	3.951319
3.755000	6.027608
3.760000	8.284444
3.765000	10.405870
3.770000	12.482159
3.775000	14.490743
3.780000	16.454190
3.785000	18.417637
3.790000	20.629337
3.795000	22.502511
3.800000	24.398253
3.805000	26.451974
3.810000	28.009190
3.815000	29.972638
3.820000	31.687833
3.825000	33.493302
3.830000	35.027950
3.835000	37.171945
3.840000	38.548615
3.845000	40.331515
3.850000	41.888732
3.855000	43.310538
3.860000	44.845187
3.865000	46.244425
3.870000	47.440548
3.875000	48.636671
3.880000	49.945636
3.885000	51.254601
3.890000	52.270177
3.895000	53.330890
3.900000	54.459308
3.905000	55.565158
3.910000	56.309914
3.915000	57.122375
3.920000	57.754289
3.925000	58.431340
3.930000	59.334074
3.935000	59.808010
3.940000	60.304514
3.945000	60.688176
3.950000	61.026701
3.955000	61.342658
3.960000	61.771457
3.965000	61.816594
3.970000	61.997141
3.975000	62.132551
3.980000	62.042277
3.985000	61.929435
3.990000	61.861730
3.995000	61.545773
4.000000	61.365226
4.005000	61.297521
4.010000	60.597902
4.015000	60.214240
4.020000	59.830578
4.025000	59.063254
4.030000	58.431340
4.035000	57.799426
4.040000	57.009533
4.045000	56.264777
4.050000	55.407179
4.055000	54.301330
4.060000	53.534006
4.065000	52.360451
4.070000	51.322306
4.075000	50.103615
4.080000	48.997765
4.085000	47.891916
4.090000	46.605519
4.095000	45.093439
4.100000	43.852179
4.105000	42.633488
4.110000	40.850587
4.115000	39.631896
4.120000	37.645880
4.125000	36.201505
4.130000	34.350900
4.135000	32.816251
4.140000	30.965646
4.145000	29.160177
4.150000	27.422413
4.155000	25.932901
4.160000	23.698634
4.165000	21.983438
4.170000	20.200538
4.175000	18.237091
4.180000	16.115665
4.185000	14.084512
4.190000	12.166202
4.195000	10.293028
4.200000	8.487559
4.205000	6.636953
4.210000	4.470391
4.215000	2.439239
4.220000	0.250108
4.225000	-1.735908
4.230000	-3.879902
4.235000	-5.798213
4.240000	-7.693955
4.245000	-9.928223
4.250000	-11.756260
4.255000	-13.448887
4.260000	-15.525176
4.265000	-17.488623
4.270000	-19.361797
4.275000	-21.302676
4.280000	-22.950166
4.285000	-24.936182
4.290000	-26.696514
4.295000	-28.479415
4.300000	-29.968926
4.305000	-31.074776
4.310000	-33.263907
4.315000	-34.979102
4.320000	-35.904405
4.325000	-38.025831
4.330000	-39.402501
4.335000	-40.237530
4.340000	-41.997862
4.345000	-43.419669
4.350000	-44.864044
4.355000	-45.902189
4.360000	-47.143448
4.365000	-48.294435
4.370000	-49.445421
4.375000	-50.212745
4.380000	-51.566847
4.385000	-52.356740
4.390000	-53.304611
4.395000	-53.868820
4.400000	-54.636144
4.405000	-55.335763
4.410000	-56.012814
4.415000	-56.554455
4.420000	-57.254074
4.425000	-57.637736
4.430000	-58.179376
4.435000	-58.517902
4.440000	-58.653312
4.445000	-58.811291
4.450000	-58.946701
4.455000	-58.833859
4.460000	-59.059542
4.465000	-59.149816
4.470000	-58.901564
4.475000	-58.946701
4.480000	-58.630744
4.485000	-58.608175
4.490000	-58.359923
4.495000	-57.863419
4.500000	-57.276642
4.505000	-56.283634
4.510000	-56.080519
4.515000	-55.787130
4.520000	-55.110079
4.525000	-54.591007
4.530000	-53.485158
4.535000	-52.808107
4.540000	-52.085919
4.545000	-51.228322
4.550000	-49.896788
4.555000	-49.174601
4.560000	-48.023614
4.565000	-46.895196
4.570000	-45.586232
4.575000	-44.525519
4.580000	-43.058575
4.585000	-41.817315
4.590000	-40.598624
4.595000	-39.154249
4.600000	-37.642169
4.605000	-35.678722
4.610000	-34.618009
4.615000	-33.218770
4.620000	-31.616417
4.625000	-29.698106
4.630000	-28.366573
4.635000	-26.628809
4.640000	-25.026456
4.645000	-23.288692
4.650000	-21.550928
4.655000	-19.361797
4.660000	-17.646602
4.665000	-15.999112
4.670000	-14.351621
4.675000	-12.546153
4.680000	-10.515000
4.685000	-8.528984
4.690000	-6.497832
4.695000	-4.647227
4.700000	-2.774053
4.705000	-0.833174
4.710000	0.904590
4.715000	2.980879
4.720000	4.944326
4.725000	6.727227
4.730000	8.713243
4.735000	10.541280
4.740000	12.030792
4.745000	13.813692
4.750000	16.002823
4.755000	17.718018
4.760000	19.342940
4.765000	21.012999
4.770000	22.953878
4.775000	24.420821
4.780000	26.316563
4.785000	27.715802
4.790000	29.295587
4.795000	31.055919
4.800000	32.455157
4.805000	34.147784
4.810000	35.501886
4.815000	36.765714
4.820000	37.961837
4.825000	39.564191
4.830000	40.579767
4.835000	41.888732
4.840000	43.084855
4.845000	44.122999
4.850000	45.183712
4.855000	46.492677
4.860000	47.305138
4.865000	47.982189
4.870000	48.794650
4.875000	49.855363
4.880000	50.239025
4.885000	51.119191
4.890000	51.705968
4.895000	52.270177
4.900000	52.856955
4.905000	53.488869
4.910000	53.534006
4.915000	54.053078
4.920000	54.188488
4.925000	54.301330
4.930000	54.436740
4.935000	54.527013
4.940000	54.684992
4.945000	54.481877
4.950000	54.369035
4.955000	54.436740
4.960000	54.165920
4.965000	53.985373
4.970000	53.601711
4.975000	53.172912
4.980000	52.856955
4.985000	52.405588
4.990000	51.660832
4.995000	51.209464
5.000000	50.487277
5.005000	50.193888
5.010000	49.133175
5.015000	48.343283
5.020000	47.621095
5.025000	46.673224
5.030000	45.522238
5.035000	44.642072
5.040000	43.423380
5.045000	42.452941
5.050000	41.234249
5.055000	39.925284
5.060000	38.887140
5.065000	37.397628
5.070000	36.111232
5.075000	34.802267
5.080000	33.199913
5.085000	31.710401
5.090000	30.469142
5.095000	28.708810
5.100000	27.399845
5.105000	25.955470
5.110000	24.037159
5.115000	22.547647
5.120000	20.719610
5.125000	19.049551
5.130000	17.424630
5.135000	15.799708
5.140000	13.926534
5.145000	12.008223
5.150000	10.496143
5.155000	8.848653
5.160000	6.952911
5.165000	5.260284
5.170000	3.567657
5.175000	1.536504
5.180000	-0.404375
5.185000	-2.209844
5.190000	-3.812197
5.195000	-5.707939
5.200000	-7.490840
5.205000	-9.251172
5.210000	-10.876094
5.215000	-12.658994
5.220000	-14.554737
5.225000	-16.247364
5.230000	-17.624034
5.235000	-19.542344
5.240000	-21.167266
5.245000	-22.634209
5.250000	-24.394542
5.255000	-25.771211
5.260000	-27.373565
5.265000	-28.885645
5.270000	-30.330020
5.275000	-31.616417
5.280000	-32.880245
5.285000	-34.460030
5.290000	-35.678722
5.295000	-36.784571
5.300000	-38.025831
5.305000	-39.041407
5.310000	-40.282667
5.315000	-41.614200
5.320000	-42.404093
5.325000	-43.419669
5.330000	-44.570655
5.335000	-45.428253
5.340000	-46.127872
5.345000	-47.053175
5.350000	-47.662521
5.355000	-48.542687
5.360000	-49.152032
5.365000	-49.558263
5.370000	-50.009630
5.375000	-50.460997
5.380000	-51.273458
5.385000	-51.454005
5.390000	-51.882804
5.395000	-52.198761
5.400000	-52.311603
5.405000	-52.221329
5.410000	-52.492150
5.415000	-52.334171
5.420000	-52.469581
5.425000	-52.401876
5.430000	-52.176193
5.435000	-52.289034
5.440000	-51.995646
5.445000	-51.837667
5.450000	-51.476574
5.455000	-50.844659
5.460000	-50.348156
5.465000	-49.964493
5.470000	-49.377716
5.475000	-48.813507
5.480000	-48.091320
5.485000	-47.572247
5.490000	-46.511534
5.495000	-45.766778
5.500000	-45.044591
5.505000	-44.209562
5.510000	-42.945733
5.515000	-42.358956
5.520000	-41.298243
5.525000	-40.124688
5.530000	-39.041407
5.535000	-37.709874
5.540000	-36.694298
5.545000	-35.633585
5.550000	-34.256915
5.555000	-32.993087
5.560000	-31.593848
5.565000	-30.465430
5.570000	-28.614825
5.575000	-27.463838
5.580000	-26.087169
5.585000	-24.710499
5.590000	-22.950166
5.595000	-21.573497
5.600000	-19.722891
5.605000	-18.278516
5.610000	-16.766436
5.615000	-14.983535
5.620000	-13.268340
5.625000	-11.688555
5.630000	-10.041065
5.635000	-8.167891
5.640000	-6.542969
5.645000	-4.850342
5.650000	-3.270557
5.655000	-1.419951
5.660000	0.114697
5.665000	2.033008
5.670000	3.590225
5.675000	5.147442
5.680000	6.975479
5.685000	8.532696
5.690000	10.135049
5.695000	11.963086
5.700000	13.339756
5.705000	15.167794
5.710000	16.702442
5.715000	18.259659
5.720000	19.816876
5.725000	21.216114
5.730000	22.773331
5.735000	24.082296
5.740000	25.978038
5.745000	27.038751
5.750000	28.189737
5.755000	29.611544
5.760000	31.033351
5.765000	32.184337
5.770000	33.493302
5.775000	34.576583
5.780000	35.682433
5.785000	36.855988
5.790000	37.623312
5.795000	38.796866
5.800000	39.925284
5.805000	40.624904
5.810000	41.730753
5.815000	42.294962
5.820000	43.107423
5.825000	43.716769
5.830000	44.574367
5.835000	45.003165
5.840000	45.567374
5.845000	46.221857
5.850000	46.740929
5.855000	46.944044
5.860000	47.350275
5.865000	47.643664
5.870000	47.733937
5.875000	47.914484
5.880000	47.959621
5.885000	47.937052
5.890000	48.049894
5.895000	48.027326
5.900000	47.846779
5.905000	47.891916
5.910000	47.779074
5.915000	47.508253
5.920000	47.350275
5.925000	46.673224
5.930000	46.515246
5.935000	45.996173
5.940000	45.454533
5.945000	44.867755
5.950000	44.235841
5.955000	43.626496
5.960000	42.926876
5.965000	42.182120
5.970000	41.392228
5.975000	40.512062
5.980000	39.677033
5.985000	38.616320
5.990000	37.578175
5.995000	36.788282
6.000000	35.637296
6.005000	34.396036
6.010000	33.357892
6.015000	32.116632
6.020000	31.033351
6.025000	29.634112
6.030000	28.234874
6.035000	27.151593
6.040000	25.910333
6.045000	24.217706
6.050000	22.841036
6.055000	21.464366
6.060000	20.200538
6.065000	18.688458
6.070000	16.973262
6.075000	15.822276
6.080000	13.903965
6.085000	12.707842
6.090000	10.992647
6.095000	9.390293
6.100000	7.991055
6.105000	6.388702
6.110000	4.786348
6.115000	3.206563
6.120000	1.626778
6.125000	-0.110986
6.130000	-1.532793
6.135000	-3.067441
6.140000	-4.647227
6.145000	-6.294717
6.150000	-8.009912
6.155000	-9.747676
6.160000	-11.146914
6.165000	-12.523584
6.170000	-14.103369
6.175000	-15.795996
6.180000	-17.262940
6.185000	-18.820157
6.190000	-20.106553
6.195000	-21.550928
6.200000	-22.972735
6.205000	-24.371973
6.210000	-25.432686
6.215000	-26.989903
6.220000	-28.163458
6.225000	-29.337012
6.230000	-30.533135
6.235000	-31.661553
6.240000	-32.519151
6.245000	-33.760411
6.250000	-34.866261
6.255000	-35.836700
6.260000	-36.671729
6.265000	-37.912989
6.270000	-38.477198
6.275000	-39.583048
6.280000	-40.305235
6.285000	-41.140265
6.290000	-41.569063
6.295000	-42.426661
6.300000	-42.674913
6.305000	-43.487374
6.310000	-44.074151
6.315000	-44.683497
6.320000	-44.886612
6.325000	-45.292843
6.330000	-45.586232
6.335000	-45.766778
6.340000	-45.902189
6.345000	-46.263282
6.350000	-46.308419
6.355000	-46.308419
6.360000	-46.534103
6.365000	-46.240714
6.370000	-46.330987
6.375000	-45.992462
6.380000	-45.947325
6.385000	-45.473390
6.390000	-45.315411
6.395000	-44.818907
6.400000	-44.525519
6.405000	-44.074151
6.410000	-43.758194
6.415000	-42.742618
6.420000	-42.042999
6.425000	-42.042999
6.430000	-41.049991
6.435000	-40.327804
6.440000	-39.763595
6.445000	-39.086544
6.450000	-38.138673
6.455000	-37.461622
6.460000	-36.242931
6.465000	-35.746427
6.470000	-34.527735
6.475000	-33.782979
6.480000	-32.722266
6.485000	-31.864669
6.490000	-30.600841
6.495000	-29.021055
6.500000	-28.118321
6.505000	-27.080176
6.510000	-25.703506
6.515000	-24.891045
6.520000	-23.040440
6.525000	-21.799180
6.530000	-20.670762
6.535000	-19.248955
6.540000	-17.646602
6.545000	-16.585889
6.550000	-14.938399
6.555000	-13.539160
6.560000	-12.230195
6.565000	-10.560137
6.570000	-9.273740
6.575000	-7.603682
6.580000	-6.136738
6.585000	-4.647227
6.590000	-2.886894
6.595000	-1.600498
6.600000	-0.088418
6.605000	1.581641
6.610000	3.048584
6.615000	4.628369
6.620000	6.072744
6.625000	7.584825
6.630000	8.961495
6.635000	10.428438
6.640000	11.895381
6.645000	13.249483
6.650000	14.558448
6.655000	16.093096
6.660000	17.176378
6.665000	18.688458
6.670000	20.223106
6.675000	21.058136
6.680000	22.660489
6.685000	23.743770
6.690000	24.759347
6.695000	26.316563
6.700000	27.309571
6.705000	28.234874
6.710000	29.543839
6.715000	30.581983
6.720000	31.371876
6.725000	32.364884
6.730000	33.335323
6.735000	34.238058
6.740000	34.982814
6.745000	35.705001
6.750000	36.720577
6.755000	37.307355
6.760000	37.871564
6.765000	38.593751
6.770000	39.225665
6.775000	39.857579
6.780000	40.173536
6.785000	40.782882
6.790000	41.008566
6.795000	41.324523
6.800000	41.821027
6.805000	42.046710
6.810000	42.024142
6.815000	42.249826
6.820000	42.475509
6.825000	42.204689
6.830000	42.204689
6.835000	42.249826
6.840000	42.159552
6.845000	41.933869
6.850000	41.730753
6.855000	41.595343
6.860000	41.053702
6.865000	40.805451
6.870000	40.489493
6.875000	39.992990
6.880000	39.699601
6.885000	38.999982
6.890000	38.255226
6.895000	37.736154
6.900000	37.307355
6.905000	36.652872
6.910000	35.592159
6.915000	34.734562
6.920000	34.125216
6.925000	32.974230
6.930000	32.184337
6.935000	31.168761
6.940000	30.424005
6.945000	29.408429
6.950000	28.122032
6.955000	27.219298
6.960000	26.248858
6.965000	24.827052
6.970000	23.879181
6.975000	22.705626
6.980000	21.328956
6.985000	20.403653
6.990000	18.914141
6.995000	17.627745
7.000000	16.521895
7.005000	15.348340
7.010000	13.745987
7.015000	12.595001
7.020000	11.353741
7.025000	9.728819
7.030000	8.397286
7.035000	7.043184
7.040000	5.508535
7.045000	4.086729
7.050000	2.755196
7.055000	1.355957
7.060000	-0.201260
7.065000	-1.510224
7.070000	-2.886894
7.075000	-4.263564
7.080000	-5.707939
7.085000	-7.265156
7.090000	-8.371006
7.095000	-9.905654
7.100000	-11.169483
7.105000	-12.433311
7.110000	-14.058233
7.115000	-15.276924
7.120000	-16.653594
7.125000	-17.646602
7.130000	-19.361797
7.135000	-20.377373
7.140000	-21.596065
7.145000	-22.656778
7.150000	-23.988311
7.155000	-24.891045
7.160000	-26.200010
7.165000	-27.283292
7.170000	-28.163458
7.175000	-29.427286
7.180000	-30.217178
7.185000	-30.916798
7.190000	-32.090352
7.195000	-32.451446
7.200000	-33.263907
7.205000	-33.782979
7.210000	-34.979102
7.215000	-35.633585
7.220000	-35.972110
7.225000	-36.671729
7.230000	-37.393917
7.235000	-38.003263
7.240000	-38.499767
7.245000	-38.860860
7.250000	-39.109112
7.255000	-39.650753
7.260000	-39.899005
7.265000	-40.192394
7.270000	-40.440645
7.275000	-40.598624
7.280000	-40.801739
7.285000	-40.801739
7.290000	-40.688897
7.295000	-40.846876
7.300000	-40.621192
7.305000	-40.147257
7.310000	-40.576056
7.315000	-40.214962
7.320000	-39.989278
7.325000	-39.876436
7.330000	-39.673321
7.335000	-39.221954
7.340000	-38.635177
7.345000	-38.296651
7.350000	-38.003263
7.355000	-37.100528
7.360000	-36.626593
7.365000	-35.881837
7.370000	-35.611016
7.375000	-35.024239
7.380000	-34.211778
7.385000	-33.421886
7.390000	-32.631993
7.395000	-31.977510
7.400000	-30.736251
7.405000	-30.081768
7.410000	-29.427286
7.415000	-28.276299
7.420000	-27.215587
7.425000	-26.403126
7.430000	-25.387549
7.435000	-24.168858
7.440000	-23.153282
7.445000	-22.002295
7.450000	-20.670762
7.455000	-19.610049
7.460000	-18.504200
7.465000	-17.172666
7.470000	-15.953975
7.475000	-14.893262
7.480000	-13.381182
7.485000	-12.252764
7.490000	-10.808389
7.495000	-9.928223
7.500000	-8.009912
7.505000	-6.678379
7.510000	-5.617666
7.515000	-3.947607
7.520000	-2.774053
7.525000	-1.600498
7.530000	-0.517217
7.535000	0.836885
7.540000	2.439239
7.545000	3.680498
7.550000	5.102305
7.555000	6.050176
7.560000	7.584825
7.565000	8.803516
7.570000	10.180186
7.575000	11.240899
7.580000	12.482159
7.585000	13.610577
7.590000	15.077520
7.595000	16.160801
7.600000	17.244083
7.605000	18.598184
7.610000	19.433214
7.615000	20.651905
7.620000	21.938302
7.625000	22.660489
7.630000	23.946886
7.635000	24.917325
7.640000	25.865196
7.645000	26.609952
7.650000	27.287003
7.655000	28.076895
7.660000	28.889356
7.665000	29.634112
7.670000	30.694825
7.675000	31.055919
7.680000	31.778107
7.685000	32.635704
7.690000	32.951661
7.695000	33.561007
7.700000	34.283194
7.705000	34.892540
7.710000	34.937677
7.715000	35.343907
7.720000	35.750138
7.725000	35.817843
7.730000	36.156368
7.735000	36.540030
7.740000	36.652872
7.745000	36.630304
7.750000	36.788282
7.755000	36.788282
7.760000	36.652872
7.765000	36.630304
7.770000	36.585167
7.775000	36.449757
7.780000	36.111232
7.785000	35.840411
7.790000	35.705001
7.795000	35.185929
7.800000	34.937677
7.805000	34.711993
7.810000	34.034943
7.815000	33.718985
7.820000	33.109640
7.825000	32.658273
7.830000	31.868380
7.835000	31.168761
7.840000	30.807667
7.845000	30.085480
7.850000	29.160177
7.855000	28.483126
7.860000	27.512686
7.865000	26.880772
7.870000	26.181153
7.875000	24.849620
7.880000	23.969454
7.885000	22.953878
7.890000	22.186554
7.895000	21.216114
7.900000	20.381085
7.905000	19.049551
7.910000	18.056544
7.915000	16.860421
7.920000	15.980255
7.925000	14.671290
7.930000	13.407461
7.935000	12.459590
7.940000	11.173194
7.945000	10.022207
7.950000	8.826084
7.955000	7.629961
7.960000	6.478975
7.965000	5.237715
7.970000	3.951319
7.975000	2.642354
7.980000	1.581641
7.985000	0.092129
7.990000	-1.013721
7.995000	-2.412959
8.000000	-3.451103
8.005000	-4.556953
8.010000	-6.023896
8.015000	-7.174883
8.020000	-8.213027
8.025000	-9.770244
8.030000	-10.469863
8.035000	-11.981944
8.040000	-12.974951
8.045000	-14.329053
8.050000	-15.389766
8.055000	-16.631026
8.060000	-17.601465
8.065000	-18.662178
8.070000	-19.700323
8.075000	-20.625625
8.080000	-21.708907
8.085000	-22.792188
8.090000	-23.559512
8.095000	-24.529952
8.100000	-25.207002
8.105000	-25.929190
8.110000	-27.170450
8.115000	-27.779796
8.120000	-28.501983
8.125000	-29.449854
8.130000	-29.788380
8.135000	-30.510567
8.140000	-31.097344
8.145000	-31.729259
8.150000	-32.225762
8.155000	-32.677130
8.160000	-33.218770
8.165000	-33.444454
8.170000	-33.850684
8.175000	-34.505167
8.180000	-34.775987
8.185000	-34.956534
8.190000	-35.159649
8.195000	-35.543311
8.200000	-35.475606
8.205000	-35.182218
8.210000	-35.656153
8.215000	-35.701290
8.220000	-35.611016
8.225000	-35.791563
8.230000	-35.656153
8.235000	-35.588448
8.240000	-35.137081
8.245000	-35.159649
8.250000	-34.843692
8.255000	-34.685714
8.260000	-34.234346
8.265000	-33.873253
8.270000	-33.399317
8.275000	-32.947950
8.280000	-32.609425
8.285000	-32.180626
8.290000	-31.458438
8.295000	-30.961934
8.300000	-30.397725
8.305000	-29.337012
8.310000	-29.314444
8.315000	-28.366573
8.320000	-27.644385
8.325000	-27.080176
8.330000	-26.290284
8.335000	-25.364981
8.340000	-24.800772
8.345000	-23.649786
8.350000	-22.882461
8.355000	-21.844317
8.360000	-20.941582
8.365000	-19.926006
8.370000	-18.775020
8.375000	-17.804580
8.380000	-17.059825
8.385000	-15.683155
8.390000	-14.870694
8.395000	-13.809981
8.400000	-12.388174
8.405000	-11.282324
8.410000	-10.537568
8.415000	-9.409150
8.420000	-7.739092
8.425000	-7.129746
8.430000	-5.865918
8.435000	-4.511816
8.440000	-3.473672
8.445000	-2.503232
8.450000	-1.013721
8.455000	-0.178691
8.460000	1.243115
8.465000	2.326397
8.470000	3.635362
8.475000	4.650938
8.480000	5.531104
8.485000	6.817500
8.490000	8.036192
8.495000	9.029200
8.500000	10.180186
8.505000	11.534288
8.510000	12.166202
8.515000	13.407461
8.520000	14.287628
8.525000	15.732003
8.530000	16.296212
8.535000	17.063536
8.540000	18.440206
8.545000	18.959278
8.550000	19.997423
8.555000	20.809884
8.560000	21.599776
8.565000	22.412237
8.570000	23.156993
8.575000	23.834044
8.580000	24.533663
8.585000	25.413829
8.590000	26.090880
8.595000	26.790499
8.600000	27.354708
8.605000	27.760938
8.610000	28.099464
8.615000	28.663673
8.620000	29.205313
8.625000	29.611544
8.630000	29.995206
8.635000	30.536847
8.640000	30.694825
8.645000	30.920509
8.650000	31.033351
8.655000	31.101056
8.660000	31.213898
8.665000	31.326739
8.670000	31.417013
8.675000	31.507286
8.680000	31.529855
8.685000	31.462149
8.690000	31.304171
8.695000	31.326739
8.700000	31.236466
8.705000	31.123624
8.710000	30.807667
8.715000	30.739962
8.720000	30.311163
8.725000	29.859796
8.730000	29.521271
8.735000	28.957062
8.740000	28.663673
8.745000	27.873780
8.750000	27.512686
8.755000	27.083888
8.760000	26.429405
8.765000	25.932901
8.770000	25.188145
8.775000	24.398253
8.780000	23.811475
8.785000	22.931309
8.790000	22.457374
8.795000	21.599776
8.800000	20.832452
8.805000	20.290811
8.810000	18.914141
8.815000	18.372501
8.820000	17.492335
8.825000	16.476758
8.830000	15.777139
8.835000	14.671290
8.840000	13.633145
8.845000	12.798116
8.850000	11.601993
8.855000	10.721827
8.860000	9.728819
8.865000	8.600401
8.870000	7.720235
8.875000	6.433838
8.880000	5.260284
8.885000	4.538096
8.890000	3.251699
8.895000	2.303828
8.900000	1.220547
8.905000	0.024424
8.910000	-1.126562
8.915000	-2.254980
8.920000	-3.044873
8.925000	-4.240996
8.930000	-5.121162
8.935000	-6.046465
8.940000	-7.377998
8.945000	-8.325869
8.950000	-9.725108
8.955000	-10.627842
8.960000	-11.417735
8.965000	-12.455879
8.970000	-13.516592
8.975000	-14.599873
8.980000	-15.480039
8.985000	-16.563321
8.990000	-17.420918
8.995000	-17.962559
9.000000	-18.842725
9.005000	-19.519776
9.010000	-20.580489
9.015000	-21.596065
9.020000	-22.227979
9.025000	-22.950166
9.030000	-23.649786
9.035000	-24.484815
9.040000	-24.913614
9.045000	-25.545528
9.050000	-26.290284
9.055000	-26.538536
9.060000	-27.486407
9.065000	-27.870069
9.070000	-28.231163
9.075000	-28.682530
9.080000	-28.975919
9.085000	-29.382149
9.090000	-29.607833
9.095000	-29.788380
9.100000	-30.126905
9.105000	-30.375157
9.110000	-30.691114
9.115000	-30.758819
9.120000	-30.691114
9.125000	-30.916798
9.130000	-30.984503
9.135000	-30.803956
9.140000	-30.939366
9.145000	-30.894229
9.150000	-30.781387
9.155000	-30.803956
9.160000	-30.600841
9.165000	-30.533135
9.170000	-30.081768
9.175000	-29.652969
9.180000	-29.585264
9.185000	-29.382149
9.190000	-28.840508
9.195000	-28.659962
9.200000	-28.186026
9.205000	-27.712090
9.210000	-27.305860
9.215000	-26.606241
9.220000	-26.109737
9.225000	-25.432686
9.230000	-25.161866
9.235000	-24.529952
9.240000	-23.694922
9.245000	-23.085577
9.250000	-22.498799
9.255000	-21.686338
9.260000	-21.031856
9.265000	-19.948575
9.270000	-19.542344
9.275000	-18.684746
9.280000	-17.646602
9.285000	-17.082393
9.290000	-16.066817
9.295000	-15.096377
9.300000	-14.103369
9.305000	-12.862110
9.310000	-12.478447
9.315000	-11.417735
9.320000	-10.311885
9.325000	-9.657402
9.330000	-8.416143
9.335000	-7.468272
9.340000	-6.430127
9.345000	-5.459687
9.350000	-4.511816
9.355000	-3.699355
9.360000	-2.751484
9.365000	-1.442519
9.370000	-0.517217
9.375000	0.362949
9.380000	1.671914
9.385000	2.552080
9.390000	3.432246
9.395000	4.447823
9.400000	5.463399
9.405000	6.366133
9.410000	7.539688
9.415000	8.307012
9.420000	9.232315
9.425000	10.067344
9.430000	10.970079
9.435000	11.714834
9.440000	12.798116
9.445000	13.520303
9.450000	14.468174
9.455000	15.303204
9.460000	16.025391
9.465000	16.679874
9.470000	17.560040
9.475000	18.259659
9.480000	18.823868
9.485000	19.546055
9.490000	20.426221
9.495000	20.764747
9.500000	21.396661
9.505000	22.231690
9.510000	22.592784
9.515000	22.908741
9.520000	23.585792
9.525000	23.879181
9.530000	24.285411
9.535000	24.646505
9.540000	25.278419
9.545000	25.684649
9.550000	26.023175
9.555000	26.248858
9.560000	26.316563
9.565000	26.451974
9.570000	26.813067
9.575000	26.767931
9.580000	26.835636
9.585000	26.993614
9.590000	26.880772
9.595000	27.061319
9.600000	27.061319
9.605000	26.971046
9.610000	26.903341
9.615000	26.677657
9.620000	26.564815
9.625000	26.406837
9.630000	26.181153
9.635000	25.978038
9.640000	25.526671
9.645000	25.030167
9.650000	24.601368
9.655000	24.307979
9.660000	24.059727
9.665000	23.427813
9.670000	23.044151
9.675000	22.615352
9.680000	21.983438
9.685000	21.306387
9.690000	20.945294
9.695000	20.358516
9.700000	19.884581
9.705000	19.072120
9.710000	18.372501
9.715000	17.695450
9.720000	16.792715
9.725000	16.138233
9.730000	15.777139
9.735000	14.716426
9.740000	13.858829
9.745000	13.023799
9.750000	12.143633
9.755000	11.534288
9.760000	10.631553
9.765000	9.683682
9.770000	8.916358
9.775000	7.968487
9.780000	7.223731
9.785000	6.320996
9.790000	5.215147
9.795000	4.560664
9.800000	3.657930
9.805000	2.755196
9.810000	1.671914
9.815000	0.566065
9.820000	-0.291533
9.825000	-1.149131
9.830000	-2.254980
9.835000	-2.909463
9.840000	-4.015312
9.845000	-4.714932
9.850000	-5.820781
9.855000	-6.565537
9.860000	-7.581113
9.865000	-8.325869
9.870000	-9.454287
9.875000	-10.311885
9.880000	-10.876094
9.885000	-11.914238
9.890000	-12.658994
9.895000	-13.494024
9.900000	-14.103369
9.905000	-14.577305
9.910000	-15.683155
9.915000	-16.631026
9.920000	-17.285508
9.925000	-17.646602
9.930000	-18.752452
9.935000	-19.406934
9.940000	-19.564912
9.945000	-20.422510
9.950000	-20.941582
9.955000	-21.731475
9.960000	-22.227979
9.965000	-22.566504
9.970000	-23.108145
9.975000	-23.604649
9.980000	-23.988311
9.985000	-24.439678
9.990000	-24.755635
9.995000	-25.116729
10.000000	-25.139297
10.005000	-25.364981
10.010000	-25.635801
10.015000	-25.771211
10.020000	-26.132305
10.025000	-26.177442
10.030000	-26.357989
10.035000	-26.357989
10.040000	-26.470831
10.045000	-26.561104
10.050000	-26.538536
10.055000	-26.493399
10.060000	-26.403126
10.065000	-26.312852
10.070000	-26.312852
10.075000	-26.132305
10.080000	-26.042032
10.085000	-25.635801
10.090000	-25.319844
10.095000	-25.207002
10.100000	-25.003887
10.105000	-24.462247
10.110000	-24.304268
10.115000	-23.965743
10.120000	-23.559512
10.125000	-23.108145
10.130000	-22.814756
10.135000	-22.182842
10.140000	-21.754043
10.145000	-21.234971
10.150000	-20.738467
10.155000	-20.106553
10.160000	-19.497207
10.165000	-18.887862
10.170000	-18.233379
10.175000	-17.420918
10.180000	-17.127530
10.185000	-16.540752
10.190000	-15.457471
10.195000	-14.960967
10.200000	-13.990528
10.205000	-13.132930
10.210000	-12.613858
10.215000	-11.959375
10.220000	-10.966367
10.225000	-10.402158
10.230000	-9.702539
10.235000	-8.574121
10.240000	-7.761660
10.245000	-7.107178
10.250000	-6.114170
10.255000	-5.188867
10.260000	-4.444111
10.265000	-3.699355
10.270000	-2.774053
10.275000	-1.961592
10.280000	-1.058857
10.285000	-0.178691
10.290000	0.520928
10.295000	1.671914
10.300000	2.529512
10.305000	3.296836
10.310000	3.928750
10.315000	5.057168
10.320000	5.508535
10.325000	6.366133
10.330000	7.359141
10.335000	8.171602
10.340000	8.758379
10.345000	9.548272
10.350000	10.405870
10.355000	11.037784
10.360000	11.895381
10.365000	12.482159
10.370000	13.136641
10.375000	13.655713
10.380000	14.445606
10.385000	15.054952
10.390000	15.844844
10.395000	16.205938
10.400000	16.860421
10.405000	17.582608
10.410000	17.921133
10.415000	18.327364
10.420000	18.778731
10.425000	19.207530
10.430000	19.681466
10.435000	20.087696
10.440000	20.493927
10.445000	20.629337
10.450000	21.012999
10.455000	21.283819
10.460000	21.532071
10.465000	21.825460
10.470000	21.938302
10.475000	22.073712
10.480000	22.299395
10.485000	22.479942
10.490000	22.525079
10.495000	22.660489
10.500000	22.795899
10.505000	22.931309
10.510000	22.615352
10.515000	22.570216
10.520000	22.570216
10.525000	22.254259
10.530000	22.006007
10.535000	22.006007
10.540000	21.870596
10.545000	21.757755
10.550000	21.283819
10.555000	21.148409
10.560000	20.764747
10.565000	20.606768
10.570000	20.313380
10.575000	19.997423
10.580000	19.523487
10.585000	19.026983
10.590000	18.462774
10.595000	18.124249
10.600000	17.785723
10.605000	17.244083
10.610000	16.679874
10.615000	16.025391
10.620000	15.551456
10.625000	14.942110
10.630000	14.287628
10.635000	13.678282
10.640000	13.339756
10.645000	12.369317
10.650000	11.805108
10.655000	11.015215
10.660000	10.451006
10.665000	9.548272
10.670000	8.961495
10.675000	8.194170
10.680000	7.652530
10.685000	6.704659
10.690000	5.914766
10.695000	5.147442
10.700000	4.673506
10.705000	3.815908
10.710000	2.868037
10.715000	2.190987
10.720000	1.581641
10.725000	0.430654
10.730000	-0.314101
10.735000	-0.878310
10.740000	-1.803613
10.745000	-2.796621
10.750000	-3.496240
10.755000	-4.015312
10.760000	-4.714932
10.765000	-5.753076
10.770000	-6.204443
10.775000	-7.355430
10.780000	-7.874502
10.785000	-8.393574
10.790000	-9.612266
10.795000	-10.131338
10.800000	-10.627842
10.805000	-11.214619
10.810000	-12.072217
10.815000	-12.658994
10.820000	-13.290908
10.825000	-13.922822
10.830000	-14.780420
10.835000	-15.186651
10.840000	-15.773428
10.845000	-16.518184
10.850000	-17.059825
10.855000	-17.488623
10.860000	-17.533760
10.865000	-18.346221
10.870000	-18.865293
10.875000	-19.090977
10.880000	-19.474639
10.885000	-19.858301
10.890000	-20.106553
10.895000	-20.557920
10.900000	-20.535352
10.905000	-21.031856
10.910000	-21.483223
10.915000	-21.686338
10.920000	-21.799180
10.925000	-22.024864
10.930000	-22.205411
10.935000	-22.273116
10.940000	-22.363389
10.945000	-22.476231
10.950000	-22.543936
10.955000	-22.431094
10.960000	-22.566504
10.965000	-22.589073
10.970000	-22.363389
10.975000	-22.521368
10.980000	-22.205411
10.985000	-22.205411
10.990000	-22.070000
10.995000	-21.912022
11.000000	-21.573497
11.005000	-21.392950
11.010000	-21.257539
11.015000	-20.851309
11.020000	-20.512784
11.025000	-20.219395
11.030000	-19.971143
11.035000	-19.474639
11.040000	-19.339229
11.045000	-18.662178
11.050000	-18.255948
11.055000	-17.782012
11.060000	-17.511192
11.065000	-17.240371
11.070000	-16.743867
11.075000	-15.999112
11.080000	-15.547744
11.085000	-14.825557
11.090000	-14.238780
11.095000	-13.674571
11.100000	-12.907246
11.105000	-12.455879
11.110000	-11.846533
11.115000	-11.214619
11.120000	-10.605274
11.125000	-9.973359
11.130000	-9.521992
11.135000	-8.371006
11.140000	-7.806797
11.145000	-7.332861
11.150000	-6.294717
11.155000	-5.888486
11.160000	-4.985752
11.165000	-4.421543
11.170000	-3.744492
11.175000	-2.864326
11.180000	-2.300117
11.185000	-1.532793
11.190000	-0.878310
11.195000	-0.314101
11.200000	0.611201
11.205000	1.491367
11.210000	2.100713
11.215000	2.664922
11.220000	3.522520
11.225000	3.906182
11.230000	4.899190
11.235000	5.395694
11.240000	5.779356
11.245000	6.794932
11.250000	7.607393
11.255000	8.081329
11.260000	8.622969
11.265000	9.164610
11.270000	9.909366
11.275000	10.428438
11.280000	10.970079
11.285000	11.647129
11.290000	11.895381
11.295000	12.662706
11.300000	13.475167
11.305000	13.655713
11.310000	13.836260
11.315000	14.377901
11.320000	14.919542
11.325000	15.438614
11.330000	15.754571
11.335000	16.183370
11.340000	16.228506
11.345000	16.521895
11.350000	16.837852
11.355000	17.040967
11.360000	17.447198
11.365000	17.763155
11.370000	17.853428
11.375000	18.146817
11.380000	18.349932
11.385000	18.417637
11.390000	18.530479
11.395000	18.575616
11.400000	18.688458
11.405000	18.733594
11.410000	18.598184
11.415000	18.575616
11.420000	18.756163
11.425000	18.507911
11.430000	18.440206
11.435000	18.462774
11.440000	18.327364
11.445000	18.146817
11.450000	17.875997
11.455000	17.785723
11.460000	17.514903
11.465000	17.176378
11.470000	16.950694
11.475000	16.612169
11.480000	16.363917
11.485000	16.205938
11.490000	15.867413
11.495000	15.574024
11.500000	15.348340
11.505000	15.054952
11.510000	14.107081
11.515000	13.791124
11.520000	13.475167
11.525000	13.114073
11.530000	12.414454
11.535000	12.008223
11.540000	11.376309
11.545000	11.128057
11.550000	10.496143
11.555000	9.796524
11.560000	9.480567
11.565000	8.713243
11.570000	8.058760
11.575000	7.629961
11.580000	6.952911
11.585000	6.320996
11.590000	5.598809
11.595000	5.079737
11.600000	4.673506
11.605000	3.928750
11.610000	3.161426
11.615000	2.484375
11.620000	1.942735
11.625000	1.333389
11.630000	0.588633
11.635000	-0.156123
11.640000	-0.697764
11.645000	-1.397383
11.650000	-2.097002
11.655000	-2.661211
11.660000	-3.383398
11.665000	-4.015312
11.670000	-4.421543
11.675000	-5.211436
11.680000	-5.798213
11.685000	-6.317285
11.690000	-7.197451
11.695000	-7.558545
11.700000	-7.964775
11.705000	-8.754668
11.710000	-9.634834
11.715000	-10.063633
11.720000	-10.402158
11.725000	-10.966367
11.730000	-11.620850
11.735000	-12.094785
11.740000	-12.591289
11.745000	-12.794404
11.750000	-13.516592
11.755000	-13.809981
11.760000	-14.441895
11.765000	-14.893262
11.770000	-15.073809
11.775000	-15.434903
11.780000	-15.908838
11.785000	-16.292500
11.790000	-16.789004
11.795000	-16.901846
11.800000	-17.172666
11.805000	-17.308076
11.810000	-17.488623
11.815000	-17.736875
11.820000	-17.872285
11.825000	-18.030264
11.830000	-18.436494
11.835000	-18.526768
11.840000	-18.684746
11.845000	-18.752452
11.850000	-18.842725
11.855000	-18.842725
11.860000	-18.842725
11.865000	-18.865293
11.870000	-18.842725
11.875000	-18.820157
11.880000	-18.639610
11.885000	-18.729883
11.890000	-18.436494
11.895000	-18.413926
11.900000	-17.939991
11.905000	-17.398350
11.910000	-17.691739
11.915000	-17.669170
11.920000	-17.285508
11.925000	-17.443487
11.930000	-16.992119
11.935000	-16.653594
11.940000	-16.540752
11.945000	-15.908838
11.950000	-15.705723
11.955000	-15.299492
11.960000	-15.051240
11.965000	-14.464463
11.970000	-14.103369
11.975000	-13.922822
11.980000	-13.336045
11.985000	-12.704131
11.990000	-12.568721
11.995000	-12.004512
12.000000	-11.395166
12.005000	-10.763252
12.010000	-10.447295
12.015000	-10.176475
12.020000	-9.702539
12.025000	-9.160899
12.030000	-8.303301
12.035000	-7.693955
12.040000	-7.445703
12.045000	-6.858926
12.050000	-6.249580
12.055000	-5.707939
12.060000	-4.940615
12.065000	-4.489248
12.070000	-4.015312
12.075000	-3.135146
12.080000	-2.841758
12.085000	-2.254980
12.090000	-1.442519
12.095000	-1.081426
12.100000	-0.381806
12.105000	0.272676
12.110000	0.566065
12.115000	1.491367
12.120000	2.145850
12.125000	2.416670
12.130000	3.161426
12.135000	3.657930
12.140000	4.199571
12.145000	4.808916
12.150000	5.260284
12.155000	5.485967
12.160000	6.208155
12.165000	6.840069
12.170000	7.517120
12.175000	7.765371
12.180000	8.216739
12.185000	8.713243
12.190000	9.051768
12.195000	9.570840
12.200000	10.089913
12.205000	10.608985
12.210000	10.857237
12.215000	11.128057
12.220000	11.624561
12.225000	11.850245
12.230000	12.008223
12.235000	12.640137
12.240000	12.775547
12.245000	13.204346
12.250000	13.384893
12.255000	13.497735
12.260000	13.768555
12.265000	13.813692
12.270000	14.084512
12.275000	14.445606
12.280000	14.535879
12.285000	14.738995
12.290000	14.874405
12.295000	14.919542
12.300000	15.100088
12.305000	15.145225
12.310000	15.145225
12.315000	15.167794
12.320000	15.190362
12.325000	15.145225
12.330000	14.942110
12.335000	14.896973
12.340000	14.806700
12.345000	14.648721
12.350000	14.513311
12.355000	14.287628
12.360000	14.107081
12.365000	13.813692
12.370000	13.791124
12.375000	13.520303
12.380000	13.384893
12.385000	13.181778
12.390000	13.001231
12.395000	12.617569
12.400000	12.369317
12.405000	12.030792
12.410000	11.669698
12.415000	11.444014
12.420000	11.173194
12.425000	10.608985
12.430000	10.473575
12.435000	9.954502
12.440000	9.480567
12.445000	9.029200
12.450000	8.668106
12.455000	8.126465
12.460000	7.765371
12.465000	7.336573
12.470000	6.952911
12.475000	6.253291
12.480000	5.689082
12.485000	5.395694
12.490000	4.966895
12.495000	4.673506
12.500000	3.973887
12.505000	3.567657
12.510000	2.935742
12.515000	2.394102
12.520000	1.875030
12.525000	1.468799
12.530000	0.633770
12.535000	0.295244
12.540000	-0.449512
12.545000	-0.991152
12.550000	-1.261973
12.555000	-1.984160
12.560000	-2.480664
12.565000	-2.864326
12.570000	-3.518809
12.575000	-3.902471
12.580000	-4.421543
12.585000	-4.895478
12.590000	-5.527393
12.595000	-6.001328
12.600000	-6.227012
12.605000	-6.768652
12.610000	-7.310293
12.615000	-7.626250
12.620000	-7.897070
12.625000	-8.641826
12.630000	-9.251172
12.635000	-9.612266
12.640000	-9.973359
12.645000	-10.153906
12.650000	-10.695547
12.655000	-10.853526
12.660000	-11.508008
12.665000	-11.936807
12.670000	-12.094785
12.675000	-12.591289
12.680000	-12.546153
12.685000	-12.749268
12.690000	-13.200635
12.695000	-13.539160
12.700000	-13.674571
12.705000	-13.832549
12.710000	-14.216211
12.715000	-14.487031
12.720000	-14.464463
12.725000	-14.712715
12.730000	-14.938399
12.735000	-14.848125
12.740000	-15.073809
12.745000	-15.051240
12.750000	-15.276924
12.755000	-15.299492
12.760000	-15.231787
12.765000	-15.412334
12.770000	-15.322061
12.775000	-15.186651
12.780000	-15.367198
12.785000	-15.073809
12.790000	-15.006104
12.795000	-14.983535
12.800000	-14.757852
12.805000	-14.487031
12.810000	-14.622442
12.815000	-14.532168
12.820000	-14.148506
12.825000	-13.990528
12.830000	-13.922822
12.835000	-13.584297
12.840000	-13.403750
12.845000	-13.155498
12.850000	-12.636426
12.855000	-12.591289
12.860000	-12.433311
12.865000	-12.230195
12.870000	-11.823965
12.875000	-11.462871
12.880000	-10.921231
12.885000	-10.853526
12.890000	-10.492432
12.895000	-10.108770
12.900000	-9.702539
12.905000	-9.138330
12.910000	-9.002920
12.915000	-8.258164
12.920000	-7.942207
12.925000	-7.716523
12.930000	-7.220020
12.935000	-6.768652
12.940000	-6.362422
12.945000	-6.001328
12.950000	-5.595098
12.955000	-5.008320
12.960000	-4.556953
12.965000	-3.879902
12.970000	-3.586514
12.975000	-2.999736
12.980000	-2.706348
12.985000	-2.322685
12.990000	-1.916455
12.995000	-1.171699
13.000000	-0.675195
13.005000	-0.336670
13.010000	0.069561
13.015000	0.520928
13.020000	0.972295
13.025000	1.559072
13.030000	1.965303
13.035000	2.394102
13.040000	2.980879
13.045000	3.161426
13.050000	3.725635
13.055000	3.996455
13.060000	4.470391
13.065000	5.012032
13.070000	5.237715
13.075000	5.508535
13.080000	5.847061
13.085000	6.388702
13.090000	6.907774
13.095000	7.246299
13.100000	7.697666
13.105000	7.991055
13.110000	8.216739
13.115000	8.510127
13.120000	8.780948
13.125000	8.938926
13.130000	9.367725
13.135000	9.570840
13.140000	9.796524
13.145000	9.954502
13.150000	10.202754
13.155000	10.383301
13.160000	10.608985
13.165000	10.902374
13.170000	11.128057
13.175000	10.992647
13.180000	11.263467
13.185000	11.376309
13.190000	11.376309
13.195000	11.534288
13.200000	11.624561
13.205000	11.782540
13.210000	11.805108
13.215000	11.647129
13.220000	11.737403
13.225000	11.556856
13.230000	11.534288
13.235000	11.579424
13.240000	11.353741
13.245000	11.466583
13.250000	11.173194
13.255000	11.060352
13.260000	11.037784
13.265000	11.037784
13.270000	10.812100
13.275000	10.676690
13.280000	10.360733
13.285000	10.157618
13.290000	10.044776
13.295000	9.796524
13.300000	9.706250
13.305000	9.457998
13.310000	9.074336
13.315000	8.893789
13.320000	8.780948
13.325000	8.352149
13.330000	8.058760
13.335000	7.810508
13.340000	7.629961
13.345000	7.156026
13.350000	6.952911
13.355000	6.366133
13.360000	5.847061
13.365000	5.395694
13.370000	5.327989
13.375000	5.034600
13.380000	4.741211
13.385000	4.199571
13.390000	3.793340
13.395000	3.454815
13.400000	3.161426
13.405000	2.755196
13.410000	2.371533
13.415000	1.897598
13.420000	1.581641
13.425000	0.814317
13.430000	0.453223
13.435000	0.137266
13.440000	-0.472080
13.445000	-0.630058
13.450000	-1.058857
13.455000	-1.465088
13.460000	-1.826182
13.465000	-2.480664
13.470000	-2.751484
13.475000	-2.909463
13.480000	-3.586514
13.485000	-3.857334
13.490000	-4.195859
13.495000	-4.602090
13.500000	-4.827773
13.505000	-5.256572
13.510000	-5.685371
13.515000	-6.046465
13.520000	-6.114170
13.525000	-6.791221
13.530000	-7.287725
13.535000	-7.535977
13.540000	-7.671387
13.545000	-8.100186
13.550000	-8.145322
13.555000	-8.619258
13.560000	-9.318877
13.565000	-9.499424
13.570000	-9.792813
13.575000	-9.973359
13.580000	-10.063633
13.585000	-10.402158
13.590000	-10.424727
13.595000	-10.672979
13.600000	-10.650410
13.605000	-10.469863
13.610000	-11.034072
13.615000	-11.192051
13.620000	-11.237188
13.625000	-11.575713
13.630000	-11.643418
13.635000	-11.756260
13.640000	-11.959375
13.645000	-11.846533
13.650000	-11.553145
13.655000	-12.004512
13.660000	-12.004512
13.665000	-12.139922
13.670000	-12.027080
13.675000	-12.094785
13.680000	-12.072217
13.685000	-11.914238
13.690000	-11.981944
13.695000	-11.688555
13.700000	-11.530576
13.705000	-11.508008
13.710000	-11.417735
13.715000	-11.372598
13.720000	-11.079209
13.725000	-10.876094
13.730000	-10.921231
13.735000	-10.695547
13.740000	-10.560137
13.745000	-10.379590
13.750000	-10.311885
13.755000	-10.041065
13.760000	-10.041065
13.765000	-9.747676
13.770000	-9.521992
13.775000	-9.364014
13.780000	-9.093193
13.785000	-8.348438
13.790000	-8.280732
13.795000	-8.055049
13.800000	-7.671387
13.805000	-7.355430
13.810000	-7.310293
13.815000	-7.016904
13.820000	-6.317285
13.825000	-6.272148
13.830000	-6.023896
13.835000	-5.707939
13.840000	-5.166299
13.845000	-4.850342
13.850000	-4.602090
13.855000	-4.083018
13.860000	-3.834766
13.865000	-3.631650
13.870000	-3.044873
13.875000	-2.864326
13.880000	-2.503232
13.885000	-2.164707
13.890000	-1.848750
13.895000	-1.261973
13.900000	-0.923447
13.905000	-0.584922
13.910000	-0.359238
13.915000	-0.133555
13.920000	0.678906
13.925000	0.566065
13.930000	1.085137
13.935000	1.559072
13.940000	1.807324
13.945000	2.506944
13.950000	2.574649
13.955000	2.687490
13.960000	3.093721
13.965000	3.409678
13.970000	3.725635
13.975000	4.064160
13.980000	4.380117
13.985000	4.696075
13.990000	4.966895
13.995000	5.079737
14.000000	5.395694
14.005000	5.508535
14.010000	5.621377
14.015000	5.959903
14.020000	6.388702
14.025000	6.591817
14.030000	6.794932
14.035000	7.156026
14.040000	7.268868
14.045000	7.359141
14.050000	7.539688
14.055000	7.562256
14.060000	7.720235
14.065000	7.833077
14.070000	7.900782
14.075000	8.081329
14.080000	8.216739
14.085000	8.216739
14.090000	8.284444
14.095000	8.442422
14.100000	8.600401
14.105000	8.803516
14.110000	8.713243
14.115000	8.510127
14.120000	8.758379
14.125000	8.487559
14.130000	8.510127
14.135000	8.532696
14.140000	8.329580
14.145000	8.329580
14.150000	8.171602
14.155000	8.081329
14.160000	8.103897
14.165000	7.923350
14.170000	8.013623
14.175000	7.742803
14.180000	7.607393
14.185000	7.652530
14.190000	7.381709
14.195000	7.246299
14.200000	7.223731
14.205000	7.201162
14.210000	6.727227
14.215000	6.320996
14.220000	6.343565
14.225000	5.914766
14.230000	5.531104
14.235000	5.463399
14.240000	5.260284
14.245000	5.170010
14.250000	5.012032
14.255000	4.583233
14.260000	4.470391
14.265000	3.951319
14.270000	3.680498
14.275000	3.590225
14.280000	3.161426
14.285000	2.890606
14.290000	2.619785
14.295000	2.326397
14.300000	2.303828
14.305000	1.942735
14.310000	1.468799
14.315000	1.220547
14.320000	0.859453
14.325000	0.430654
14.330000	0.385518
14.335000	-0.268965
14.340000	-0.517217
14.345000	-0.742900
14.350000	-1.036289
14.355000	-1.307109
14.360000	-1.577930
14.365000	-2.006728
14.370000	-2.209844
14.375000	-2.661211
14.380000	-2.728916
14.385000	-2.977168
14.390000	-3.360830
14.395000	-3.631650
14.400000	-3.812197
14.405000	-4.015312
14.410000	-4.331269
14.415000	-4.714932
14.420000	-4.827773
14.425000	-5.279141
14.430000	-5.595098
14.435000	-5.662803
14.440000	-6.046465
14.445000	-6.272148
14.450000	-6.452695
14.455000	-6.520400
14.460000	-6.949199
14.465000	-7.084609
14.470000	-7.332861
14.475000	-7.377998
14.480000	-7.626250
14.485000	-7.626250
14.490000	-7.942207
14.495000	-8.055049
14.500000	-7.964775
14.505000	-8.032481
14.510000	-8.303301
14.515000	-8.325869
14.520000	-8.416143
14.525000	-8.596690
14.530000	-8.709531
14.535000	-9.160899
14.540000	-9.206035
14.545000	-9.273740
14.550000	-9.341445
14.555000	-9.296309
14.560000	-9.341445
14.565000	-9.138330
14.570000	-9.183467
14.575000	-9.318877
14.580000	-9.115762
14.585000	-9.273740
14.590000	-9.228604
14.595000	-8.912647
14.600000	-8.686963
14.605000	-8.438711
14.610000	-8.371006
14.615000	-8.483848
14.620000	-8.213027
14.625000	-8.303301
14.630000	-8.100186
14.635000	-7.964775
14.640000	-8.122754
14.645000	-7.716523
14.650000	-7.784229
14.655000	-7.581113
14.660000	-7.558545
14.665000	-7.355430
14.670000	-7.107178
14.675000	-7.084609
14.680000	-6.768652
14.685000	-6.317285
14.690000	-6.362422
14.695000	-6.204443
14.700000	-5.843350
14.705000	-5.595098
14.710000	-5.504824
14.715000	-5.234004
14.720000	-4.872910
14.725000	-4.647227
14.730000	-4.556953
14.735000	-4.286133
14.740000	-3.947607
14.745000	-3.992744
14.750000	-3.609082
14.755000	-3.451103
14.760000	-3.067441
14.765000	-2.661211
14.770000	-2.728916
14.775000	-2.503232
14.780000	-2.254980
14.785000	-1.939023
14.790000	-1.555361
14.795000	-1.397383
14.800000	-0.833174
14.805000	-0.607490
14.810000	-0.539785
14.815000	-0.426943
14.820000	-0.110986
14.825000	0.046992
14.830000	0.520928
14.835000	0.566065
14.840000	0.769180
14.845000	1.265684
14.850000	1.446231
14.855000	1.604209
14.860000	1.987871
14.865000	2.190987
14.870000	2.506944
14.875000	2.416670
14.880000	2.619785
14.885000	2.980879
14.890000	3.116289
14.895000	3.409678
14.900000	3.635362
14.905000	3.770772
14.910000	3.906182
14.915000	3.838477
14.920000	4.019024
14.925000	4.492959
14.930000	4.538096
14.935000	4.718643
14.940000	4.718643
14.945000	4.944326
14.950000	5.147442
14.955000	5.034600
14.960000	5.102305
14.965000	5.373125
14.970000	5.237715
14.975000	5.373125
14.980000	5.260284
14.985000	5.666514
14.990000	5.327989
14.995000	5.350557
15.000000	5.508535
15.005000	5.598809
15.010000	5.395694
15.015000	5.373125
15.020000	5.576241
15.025000	5.508535
15.030000	5.959903
15.035000	5.485967
15.040000	5.485967
15.045000	5.440830
15.050000	5.373125
15.055000	5.373125
15.060000	5.305420
15.065000	5.282852
15.070000	5.237715
15.075000	5.034600
15.080000	5.192578
15.085000	4.966895
15.090000	4.854053
15.095000	5.237715
15.100000	4.718643
15.105000	4.763780
15.110000	4.515528
15.115000	4.019024
15.120000	4.041592
15.125000	3.815908
15.130000	3.861045
15.135000	3.635362
15.140000	3.409678
15.145000	3.296836
15.150000	2.980879
15.155000	2.845469
15.160000	2.732627
15.165000	2.461807
15.170000	2.371533
15.175000	2.326397
15.180000	1.987871
15.185000	1.829893
15.190000	1.717051
15.195000	1.378526
15.200000	1.288252
15.205000	0.927158
15.210000	0.543496
15.215000	0.543496
15.220000	0.340381
15.225000	0.001856
15.230000	-0.359238
15.235000	-0.156123
15.240000	-0.652627
15.245000	-0.878310
15.250000	-1.036289
15.255000	-1.149131
15.260000	-1.374814
15.265000	-1.465088
15.270000	-1.826182
15.275000	-2.097002
15.280000	-2.322685
15.285000	-2.548369
15.290000	-2.774053
15.295000	-2.774053
15.300000	-2.886894
15.305000	-2.886894
15.310000	-3.202851
15.315000	-3.586514
15.320000	-3.631650
15.325000	-4.015312
15.330000	-3.902471
15.335000	-3.992744
15.340000	-4.331269
15.345000	-4.353838
15.350000	-4.669795
15.355000	-4.714932
15.360000	-4.669795
15.365000	-4.985752
15.370000	-5.008320
15.375000	-5.324277
15.380000	-5.459687
15.385000	-5.414551
15.390000	-5.707939
15.395000	-5.707939
15.400000	-5.707939
15.405000	-5.775645
15.410000	-5.933623
15.415000	-6.069033
15.420000	-6.136738
15.425000	-6.069033
15.430000	-6.272148
15.435000	-6.136738
15.440000	-6.249580
15.445000	-6.317285
15.450000	-6.317285
15.455000	-6.249580
15.460000	-6.339854
15.465000	-6.249580
15.470000	-6.294717
15.475000	-6.159307
15.480000	-6.227012
15.485000	-6.249580
15.490000	-6.249580
15.495000	-6.294717
15.500000	-6.046465
15.505000	-6.001328
15.510000	-6.136738
15.515000	-5.956191
15.520000	-6.023896
15.525000	-5.956191
15.530000	-5.888486
15.535000	-5.798213
15.540000	-5.685371
15.545000	-5.685371
15.550000	-5.504824
15.555000	-5.256572
15.560000	-5.256572
15.565000	-5.098594
15.570000	-4.850342
15.575000	-4.850342
15.580000	-4.602090
15.585000	-4.579521
15.590000	-4.556953
15.595000	-4.128154
15.600000	-3.992744
15.605000	-3.676787
15.610000	-3.812197
15.615000	-3.767060
15.620000	-3.631650
15.625000	-3.496240
15.630000	-3.428535
15.635000	-3.067441
15.640000	-3.022305
15.645000	-3.022305
15.650000	-2.796621
15.655000	-2.728916
15.660000	-2.412959
15.665000	-2.345254
15.670000	-2.232412
15.675000	-2.074433
15.680000	-1.848750
15.685000	-1.555361
15.690000	-1.487656
15.695000	-1.284541
15.700000	-0.855742
15.705000	-0.720332
15.710000	-0.991152
15.715000	-0.652627
15.720000	-0.652627
15.725000	-0.359238
15.730000	-0.201260
15.735000	-0.178691
15.740000	-0.020713
15.745000	0.250108
15.750000	0.588633
15.755000	0.678906
15.760000	0.611201
15.765000	0.814317
15.770000	0.859453
15.775000	1.130274
15.780000	1.265684
15.785000	1.401094
15.790000	1.559072
15.795000	1.671914
15.800000	2.010440
15.805000	2.100713
15.810000	2.168418
15.815000	2.213555
15.820000	2.439239
15.825000	2.394102
15.830000	2.552080
15.835000	2.506944
15.840000	2.529512
15.845000	2.687490
15.850000	2.664922
15.855000	2.642354
15.860000	2.890606
15.865000	2.890606
15.870000	2.958311
15.875000	2.913174
15.880000	2.935742
15.885000	3.048584
15.890000	3.026016
15.895000	3.003448
15.900000	3.229131
15.905000	3.206563
15.910000	3.071153
15.915000	2.958311
15.920000	2.958311
15.925000	3.093721
15.930000	2.980879
15.935000	3.071153
15.940000	3.116289
15.945000	2.913174
15.950000	3.003448
15.955000	3.071153
15.960000	2.755196
15.965000	2.822901
15.970000	2.664922
15.975000	2.664922
15.980000	2.619785
15.985000	2.574649
15.990000	2.439239
15.995000	2.439239
16.000000	2.597217
16.005000	2.506944
16.010000	2.371533
16.015000	2.326397
16.020000	2.145850
16.025000	2.010440
16.030000	2.055576
16.035000	1.762188
16.040000	1.694483
16.045000	1.717051
16.050000	1.536504
16.055000	1.513936
16.060000	1.355957
16.065000	1.197979
16.070000	0.994863
16.075000	0.769180
16.080000	0.724043
16.085000	0.633770
16.090000	0.475791
16.095000	0.453223
16.100000	0.543496
16.105000	0.408086
16.110000	0.024424
16.115000	-0.133555
16.120000	-0.291533
16.125000	-0.336670
16.130000	-0.562353
16.135000	-0.494648
16.140000	-0.562353
16.145000	-0.697764
16.150000	-0.900879
16.155000	-0.923447
16.160000	-1.103994
16.165000	-1.239404
16.170000	-1.171699
16.175000	-1.329678
16.180000	-1.487656
16.185000	-1.600498
16.190000	-1.916455
16.195000	-1.961592
16.200000	-1.961592
16.205000	-1.893887
16.210000	-2.300117
16.215000	-2.345254
16.220000	-2.616074
16.225000	-2.683779
16.230000	-2.638642
16.235000	-2.841758
16.240000	-2.886894
16.245000	-2.841758
16.250000	-2.954600
16.255000	-2.909463
16.260000	-3.022305
16.265000	-3.180283
16.270000	-3.180283
16.275000	-3.338262
16.280000	-3.405967
16.285000	-3.609082
16.290000	-3.586514
16.295000	-3.541377
16.300000	-3.428535
16.305000	-3.609082
16.310000	-3.699355
16.315000	-3.879902
16.320000	-3.744492
16.325000	-3.879902
16.330000	-3.812197
16.335000	-3.812197
16.340000	-3.970176
16.345000	-3.857334
16.350000	-3.834766
16.355000	-3.970176
16.360000	-3.789629
16.365000	-4.015312
16.370000	-3.902471
16.375000	-3.834766
16.380000	-3.902471
16.385000	-3.789629
16.390000	-3.902471
16.395000	-3.902471
16.400000	-3.563945
16.405000	-3.631650
16.410000	-3.857334
16.415000	-3.744492
16.420000	-3.721924
16.425000	-3.541377
16.430000	-3.563945
16.435000	-3.428535
16.440000	-3.496240
16.445000	-3.496240
16.450000	-3.338262
16.455000	-3.225420
16.460000	-3.180283
16.465000	-3.090010
16.470000	-3.157715
16.475000	-3.067441
16.480000	-2.999736
16.485000	-3.022305
16.490000	-2.977168
16.495000	-2.932031
16.500000	-2.570937
16.505000	-2.661211
16.510000	-2.661211
16.515000	-2.480664
16.520000	-2.503232
16.525000	-2.548369
16.530000	-2.322685
16.535000	-2.435527
16.540000	-2.322685
16.545000	-2.209844
16.550000	-2.074433
16.555000	-2.097002
16.560000	-1.893887
16.565000	-1.893887
16.570000	-1.713340
16.575000	-1.690771
16.580000	-1.577930
16.585000	-1.352246
16.590000	-1.419951
16.595000	-1.352246
16.600000	-0.810605
16.605000	-0.923447
16.610000	-0.968584
16.615000	-0.991152
16.620000	-1.013721
16.625000	-0.833174
16.630000	-0.900879
16.635000	-0.697764
16.640000	-0.652627
16.645000	-0.742900
16.650000	-0.472080
16.655000	-0.156123
16.660000	-0.201260
16.665000	-0.494648
16.670000	-0.449512
16.675000	-0.223828
16.680000	-0.314101
16.685000	-0.246396
16.690000	-0.088418
16.695000	-0.110986
16.700000	0.340381
16.705000	0.227539
16.710000	0.114697
16.715000	0.340381
16.720000	0.227539
16.725000	0.250108
16.730000	0.340381
16.735000	0.385518
16.740000	0.340381
16.745000	0.475791
16.750000	0.543496
16.755000	0.430654
16.760000	0.475791
16.765000	0.475791
16.770000	0.498360
16.775000	0.543496
16.780000	0.633770
16.785000	0.611201
16.790000	0.543496
16.795000	0.746612
16.800000	0.769180
16.805000	0.769180
16.810000	0.724043
16.815000	0.498360
16.820000	0.701475
16.825000	0.566065
16.830000	0.453223
16.835000	0.588633
16.840000	0.520928
16.845000	0.543496
16.850000	0.633770
16.855000	0.453223
16.860000	0.611201
16.865000	0.408086
16.870000	0.430654
16.875000	0.430654
16.880000	0.362949
16.885000	0.385518
16.890000	0.498360
16.895000	0.362949
16.900000	0.701475
16.905000	0.701475
16.910000	0.430654
16.915000	0.385518
16.920000	0.182403
16.925000	0.272676
16.930000	0.250108
16.935000	0.046992
16.940000	-0.020713
16.945000	-0.043281
16.950000	0.069561
16.955000	0.001856
16.960000	-0.223828
16.965000	-0.043281
16.970000	-0.201260
16.975000	-0.268965
16.980000	-0.291533
16.985000	-0.359238
16.990000	-0.426943
16.995000	-0.426943
17.000000	-0.291533
17.005000	-0.246396
17.010000	-0.517217
17.015000	-0.539785
17.020000	-0.426943
17.025000	-0.675195
17.030000	-0.539785
17.035000	-0.607490
17.040000	-0.697764
17.045000	-0.607490
17.050000	-0.720332
17.055000	-0.855742
17.060000	-0.720332
17.065000	-0.991152
17.070000	-0.788037
17.075000	-0.968584
17.080000	-1.013721
17.085000	-1.036289
17.090000	-1.058857
17.095000	-1.149131
17.100000	-0.900879
17.105000	-0.946015
17.110000	-0.991152
17.115000	-0.900879
17.120000	-1.058857
17.125000	-1.013721
17.130000	-1.126562
17.135000	-1.171699
17.140000	-1.081426
17.145000	-1.216836
17.150000	-1.239404
17.155000	-1.397383
17.160000	-1.397383
17.165000	-1.284541
17.170000	-1.442519
17.175000	-1.329678
17.180000	-1.419951
17.185000	-1.397383
17.190000	-1.329678
17.195000	-1.465088
17.200000	-1.149131
17.205000	-1.307109
17.210000	-1.532793
17.215000	-1.442519
17.220000	-1.532793
17.225000	-1.555361
17.230000	-1.352246
17.235000	-1.555361
17.240000	-1.668203
17.245000	-1.510224
17.250000	-1.623066
17.255000	-1.510224
17.260000	-1.532793
17.265000	-1.623066
17.270000	-1.532793
17.275000	-1.532793
17.280000	-1.397383
17.285000	-1.532793
17.290000	-1.577930
17.295000	-1.532793
17.300000	-1.194267
17.305000	-1.397383
17.310000	-1.352246
17.315000	-1.465088
17.320000	-1.397383
17.325000	-1.510224
17.330000	-1.555361
17.335000	-1.374814
17.340000	-1.465088
17.345000	-1.510224
17.350000	-1.374814
17.355000	-1.532793
17.360000	-1.487656
17.365000	-1.352246
17.370000	-1.465088
17.375000	-1.442519
17.380000	-1.487656
17.385000	-1.374814
17.390000	-1.487656
17.395000	-1.465088
17.400000	-1.149131
17.405000	-1.103994
17.410000	-1.374814
17.415000	-1.374814
17.420000	-1.465088
17.425000	-1.329678
17.430000	-1.532793
17.435000	-1.352246
17.440000	-1.307109
17.445000	-1.419951
17.450000	-1.419951
17.455000	-1.352246
17.460000	-1.510224
17.465000	-1.532793
17.470000	-1.419951
17.475000	-1.532793
17.480000	-1.307109
17.485000	-1.487656
17.490000	-1.510224
17.495000	-1.397383
17.500000	-1.352246
17.505000	-1.307109
17.510000	-1.352246
17.515000	-1.465088
17.520000	-1.397383
17.525000	-1.465088
17.530000	-1.465088
17.535000	-1.374814
17.540000	-1.532793
17.545000	-1.374814
17.550000	-1.419951
17.555000	-1.510224
17.560000	-1.352246
17.565000	-1.487656
17.570000	-1.487656
17.575000	-1.374814
17.580000	-1.465088
17.585000	-1.352246
17.590000	-1.374814
17.595000	-1.329678
17.600000	-1.126562
17.605000	-1.307109
17.610000	-1.419951
17.615000	-1.555361
17.620000	-1.510224
17.625000	-1.374814
17.630000	-1.510224
17.635000	-1.465088
17.640000	-1.465088
17.645000	-1.487656
17.650000	-1.442519
17.655000	-1.352246
17.660000	-1.442519
17.665000	-1.397383
17.670000	-1.307109
17.675000	-1.397383
17.680000	-1.487656
17.685000	-1.397383
17.690000	-1.329678
17.695000	-1.352246
17.700000	-1.126562
17.705000	-1.352246
17.710000	-1.374814
17.715000	-1.555361
17.720000	-1.532793
17.725000	-1.487656
17.730000	-1.374814
17.735000	-1.465088
17.740000	-1.465088
17.745000	-1.329678
17.750000	-1.465088
17.755000	-1.487656
17.760000	-1.532793
17.765000	-1.532793
17.770000	-1.307109
17.775000	-1.419951
17.780000	-1.442519
17.785000	-1.374814
17.790000	-1.487656
17.795000	-1.442519
17.800000	-1.284541
17.805000	-1.284541
17.810000	-1.307109
17.815000	-1.374814
17.820000	-1.510224
17.825000	-1.284541
17.830000	-1.532793
17.835000	-1.352246
17.840000	-1.397383
17.845000	-1.442519
17.850000	-1.374814
17.855000	-1.532793
17.860000	-1.307109
17.865000	-1.532793
17.870000	-1.487656
17.875000	-1.352246
17.880000	-1.487656
17.885000	-1.532793
17.890000	-1.374814
17.895000	-1.465088
17.900000	-1.149131
17.905000	-1.103994
17.910000	-1.419951
17.915000	-1.374814
17.920000	-1.239404
17.925000	-1.329678
17.930000	-1.487656
17.935000	-1.397383
17.940000	-1.442519
17.945000	-1.352246
17.950000	-1.126562
17.955000	-1.352246
17.960000	-1.465088
17.965000	-1.284541
17.970000	-1.374814
17.975000	-1.487656
17.980000	-1.419951
17.985000	-1.465088
17.990000	-1.510224
17.995000	-1.352246
18.000000	-1.307109
18.005000	-1.149131
18.010000	-1.352246
18.015000	-1.465088
18.020000	-1.374814
18.025000	-1.397383
18.030000	-1.465088
18.035000	-1.374814
18.040000	-1.397383
18.045000	-1.284541
18.050000	-1.329678
18.055000	-1.487656
18.060000	-1.352246
18.065000	-1.510224
18.070000	-1.442519
18.075000	-1.329678
18.080000	-1.442519
18.085000	-1.465088
18.090000	-1.307109
18.095000	-1.465088
18.100000	-1.103994
18.105000	-1.126562
18.110000	-1.307109
18.115000	-1.397383
18.120000	-1.487656
18.125000	-1.307109
18.130000	-1.307109
18.135000	-1.352246
18.140000	-1.442519
18.145000	-1.307109
18.150000	-1.374814
18.155000	-1.352246
18.160000	-1.487656
18.165000	-1.397383
18.170000	-1.352246
18.175000	-1.374814
18.180000	-1.510224
18.185000	-1.442519
18.190000	-1.487656
18.195000	-1.352246
18.200000	-1.216836
18.205000	-1.261973
18.210000	-1.510224
18.215000	-1.465088
18.220000	-1.307109
18.225000	-1.487656
18.230000	-1.442519
18.235000	-1.419951
18.240000	-1.510224
18.245000	-1.329678
18.250000	-1.352246
18.255000	-1.487656
18.260000	-1.352246
18.265000	-1.487656
18.270000	-1.374814
18.275000	-1.307109
18.280000	-1.487656
18.285000	-1.374814
18.290000	-1.487656
18.295000	-1.465088
18.300000	-1.307109
18.305000	-1.352246
18.310000	-1.307109
18.315000	-1.442519
18.320000	-1.487656
18.325000	-1.329678
18.330000	-1.465088
18.335000	-1.487656
18.340000	-1.352246
18.345000	-1.532793
18.350000	-1.374814
18.355000	-1.487656
18.360000	-1.465088
18.365000	-1.442519
18.370000	-1.532793
18.375000	-1.442519
18.380000	-1.465088
18.385000	-1.487656
18.390000	-1.532793
18.395000	-1.442519
18.400000	-1.126562
18.405000	-1.374814
18.410000	-1.510224
18.415000	-1.374814
18.420000	-1.510224
18.425000	-1.374814
18.430000	-1.374814
18.435000	-1.465088
18.440000	-1.510224
18.445000	-1.352246
18.450000	-1.465088
18.455000	-1.329678
18.460000	-1.442519
18.465000	-1.487656
18.470000	-1.442519
18.475000	-1.465088
18.480000	-1.510224
18.485000	-1.419951
18.490000	-1.465088
18.495000	-1.419951
18.500000	-1.352246
18.505000	-1.194267
18.510000	-1.442519
18.515000	-1.465088
18.520000	-1.352246
18.525000	-1.374814
18.530000	-1.397383
18.535000	-1.307109
18.540000	-1.419951
18.545000	-1.510224
18.550000	-1.397383
18.555000	-1.532793
18.560000	-1.352246
18.565000	-1.487656
18.570000	-1.510224
18.575000	-1.532793
18.580000	-1.532793
18.585000	-1.284541
18.590000	-1.510224
18.595000	-1.532793
18.600000	-1.284541
18.605000	-1.307109
18.610000	-1.374814
18.615000	-1.442519
18.620000	-1.465088
18.625000	-1.532793
18.630000	-1.510224
18.635000	-1.532793
18.640000	-1.397383
18.645000	-1.442519
18.650000	-1.465088
18.655000	-1.329678
18.660000	-1.487656
18.665000	-1.329678
18.670000	-1.352246
18.675000	-1.487656
18.680000	-1.329678
18.685000	-1.374814
18.690000	-1.532793
18.695000	-1.352246
18.700000	-1.329678
18.705000	-1.329678
18.710000	-1.374814
18.715000	-1.510224
18.720000	-1.487656
18.725000	-1.442519
18.730000	-1.487656
18.735000	-1.374814
18.740000	-1.465088
18.745000	-1.352246
18.750000	-1.374814
18.755000	-1.352246
18.760000	-1.374814
18.765000	-1.487656
18.770000	-1.329678
18.775000	-1.465088
18.780000	-1.510224
18.785000	-1.419951
18.790000	-1.374814
18.795000	-1.510224
18.800000	-1.307109
18.805000	-1.352246
18.810000	-1.487656
18.815000	-1.510224
18.820000	-1.442519
18.825000	-1.374814
18.830000	-1.532793
18.835000	-1.532793
18.840000	-1.374814
18.845000	-1.465088
18.850000	-1.261973
18.855000	-1.397383
18.860000	-1.510224
18.865000	-1.397383
18.870000	-1.487656
18.875000	-1.465088
18.880000	-1.352246
18.885000	-1.532793
18.890000	-1.487656
18.895000	-1.352246
18.900000	-1.239404
18.905000	-1.126562
18.910000	-1.261973
18.915000	-1.329678
18.920000	-1.419951
18.925000	-1.352246
18.930000	-1.465088
18.935000	-1.307109
18.940000	-1.487656
18.945000	-1.465088
18.950000	-1.442519
18.955000	-1.352246
18.960000	-1.374814
18.965000	-1.261973
18.970000	-1.329678
18.975000	-1.532793
18.980000	-1.397383
18.985000	-1.329678
18.990000	-1.397383
18.995000	-1.487656
19.000000	-1.036289
19.005000	-1.329678
19.010000	-1.307109
19.015000	-1.239404
19.020000	-1.307109
19.025000	-1.352246
19.030000	-1.465088
19.035000	-1.397383
19.040000	-1.307109
19.045000	-1.510224
19.050000	-1.261973
19.055000	-1.465088
19.060000	-1.487656
19.065000	-1.352246
19.070000	-1.510224
19.075000	-1.487656
19.080000	-1.487656
19.085000	-1.510224
19.090000	-1.419951
19.095000	-1.442519
19.100000	-1.307109
19.105000	-1.216836
19.110000	-1.465088
19.115000	-1.352246
19.120000	-1.487656
19.125000	-1.352246
19.130000	-1.465088
19.135000	-1.352246
19.140000	-1.465088
19.145000	-1.329678
19.150000	-1.397383
19.155000	-1.307109
19.160000	-1.465088
19.165000	-1.261973
19.170000	-1.261973
19.175000	-1.374814
19.180000	-1.374814
19.185000	-1.284541
19.190000	-1.352246
19.195000	-1.261973
19.200000	-1.058857
19.205000	-1.239404
19.210000	-1.307109
19.215000	-1.465088
19.220000	-1.374814
19.225000	-1.374814
19.230000	-1.487656
19.235000	-1.307109
19.240000	-1.510224
19.245000	-1.465088
19.250000	-1.329678
19.255000	-1.510224
19.260000	-1.419951
19.265000	-1.487656
19.270000	-1.397383
19.275000	-1.374814
19.280000	-1.555361
19.285000	-1.442519
19.290000	-1.374814
19.295000	-1.442519
19.300000	-1.081426
19.305000	-1.261973
19.310000	-1.487656
19.315000	-1.352246
19.320000	-1.465088
19.325000	-1.374814
19.330000	-1.352246
19.335000	-1.487656
19.340000	-1.329678
19.345000	-1.442519
19.350000	-1.487656
19.355000	-1.352246
19.360000	-1.487656
19.365000	-1.487656
19.370000	-1.465088
19.375000	-1.352246
19.380000	-1.442519
19.385000	-1.465088
19.390000	-1.374814
19.395000	-1.352246
19.400000	-1.307109
19.405000	-1.058857
19.410000	-1.465088
19.415000	-1.374814
19.420000	-1.284541
19.425000	-1.329678
19.430000	-1.532793
19.435000	-1.352246
19.440000	-1.510224
19.445000	-1.307109
19.450000	-1.487656
19.455000	-1.532793
19.460000	-1.487656
19.465000	-1.532793
19.470000	-1.374814
19.475000	-1.487656
19.480000	-1.487656
19.485000	-1.374814
19.490000	-1.532793
19.495000	-1.510224
19.500000	-1.307109
19.505000	-1.081426
19.510000	-1.374814
19.515000	-1.465088
19.520000	-1.465088
19.525000	-1.374814
19.530000	-1.465088
19.535000	-1.465088
19.540000	-1.374814
19.545000	-1.487656
19.550000	-1.374814
19.555000	-1.532793
19.560000	-1.374814
19.565000	-1.532793
19.570000	-1.532793
19.575000	-1.487656
19.580000	-1.487656
19.585000	-1.487656
19.590000	-1.374814
19.595000	-1.487656
19.600000	-1.352246
19.605000	-1.307109
19.610000	-1.465088
19.615000	-1.352246
19.620000	-1.397383
19.625000	-1.149131
19.630000	-1.442519
19.635000	-1.397383
19.640000	-1.442519
19.645000	-1.307109
19.650000	-1.487656
19.655000	-1.397383
19.660000	-1.058857
19.665000	-1.081426
19.670000	-1.397383
19.675000	-1.532793
19.680000	-1.487656
19.685000	-1.374814
19.690000	-1.510224
19.695000	-1.397383
19.700000	-1.058857
19.705000	-1.149131
19.710000	-1.397383
19.715000	-1.442519
19.720000	-1.419951
19.725000	-1.307109
19.730000	-1.397383
19.735000	-1.374814
19.740000	-1.487656
19.745000	-1.465088
19.750000	-1.329678
19.755000	-1.487656
19.760000	-1.374814
19.765000	-1.352246
19.770000	-1.465088
19.775000	-1.487656
19.780000	-1.487656
19.785000	-1.465088
19.790000	-1.397383
19.795000	-1.510224
19.800000	-1.307109
19.805000	-1.284541
19.810000	-1.487656
19.815000	-1.532793
19.820000	-1.510224
19.825000	-1.171699
19.830000	-1.442519
19.835000	-1.465088
19.840000	-1.352246
19.845000	-1.487656
19.850000	-1.465088
19.855000	-1.284541
19.860000	-1.487656
19.865000	-1.487656
19.870000	-1.510224
19.875000	-1.442519
19.880000	-1.487656
19.885000	-1.374814
19.890000	-1.532793
19.895000	-1.307109
19.900000	-1.307109
19.905000	-1.307109
19.910000	-1.307109
19.915000	-1.419951
19.920000	-1.329678
19.925000	-1.284541
19.930000	-1.555361
19.935000	-1.352246
19.940000	-1.465088
19.945000	-1.374814
19.950000	-1.374814
19.955000	-1.510224
19.960000	-1.352246
19.965000	-1.510224
19.970000	-1.532793
19.975000	-1.442519
19.980000	-1.352246
19.985000	-1.374814
19.990000	-1.374814
19.995000	-1.239404
